# Convolution of a spectrum in one fiber (set to all 1.0) with a seeing FWHM at fixed FWHM intervals.
# Generated 2023-06-08 with ELiXer and HETDEX_API using: box_size=10.5,step_arcsec=0.25 
# No error is provided.
# The first value in each column is the seeing FWHM.
# The second to nth value is the correction per wavelength
# The first column are the wavelegths, second to nth columns are the corrections.
# wave  1.00 	1.10 	1.20 	1.30 	1.40 	1.50 	1.60 	1.70 	1.80 	1.90 	2.00 	2.10 	2.20 	2.30 	2.40 	2.50 	2.60 	2.70 	2.80 	2.90 	3.00 	
3470	3.2452	3.6499	4.0861	4.5538	5.0527	5.5819	6.1399	6.7251	7.3357	7.9695	8.6246	9.2986	9.9894	10.6951	11.4135	12.1427	12.8811	13.6269	14.3786	15.1348	15.8943	
3472	3.2516	3.6558	4.0913	4.5585	5.0568	5.5854	6.1429	6.7277	7.3379	7.9715	8.6262	9.3001	9.9908	10.6963	11.4146	12.1438	12.8821	13.6279	14.3796	15.1358	15.8953	
3474	3.2579	3.6616	4.0965	4.5631	5.0608	5.5889	6.1459	6.7303	7.3401	7.9734	8.6279	9.3015	9.9921	10.6975	11.4157	12.1449	12.8831	13.6289	14.3806	15.1368	15.8962	
3476	3.2643	3.6674	4.1017	4.5677	5.0648	5.5924	6.1489	6.7329	7.3423	7.9753	8.6295	9.3029	9.9933	10.6986	11.4168	12.1459	12.8841	13.6298	14.3815	15.1377	15.8971	
3478	3.2707	3.6731	4.1069	4.5722	5.0688	5.5958	6.1519	6.7354	7.3445	7.9771	8.6311	9.3043	9.9946	10.6998	11.4178	12.1469	12.8851	13.6308	14.3824	15.1386	15.8981	
3480	3.2770	3.6789	4.1120	4.5768	5.0728	5.5993	6.1548	6.7379	7.3467	7.9790	8.6327	9.3057	9.9958	10.7009	11.4189	12.1479	12.8860	13.6317	14.3833	15.1395	15.8990	
3482	3.2833	3.6846	4.1172	4.5813	5.0768	5.6027	6.1578	6.7405	7.3489	7.9809	8.6344	9.3072	9.9971	10.7021	11.4200	12.1489	12.8870	13.6327	14.3843	15.1404	15.8998	
3484	3.2897	3.6904	4.1223	4.5859	5.0808	5.6062	6.1608	6.7430	7.3510	7.9828	8.6360	9.3086	9.9984	10.7032	11.4211	12.1499	12.8880	13.6336	14.3852	15.1413	15.9007	
3486	3.2960	3.6961	4.1274	4.5904	5.0847	5.6096	6.1637	6.7456	7.3532	7.9846	8.6376	9.3100	9.9997	10.7044	11.4221	12.1509	12.8889	13.6345	14.3860	15.1422	15.9016	
3488	3.3023	3.7018	4.1325	4.5949	5.0886	5.6129	6.1666	6.7480	7.3553	7.9864	8.6392	9.3114	10.0009	10.7055	11.4231	12.1518	12.8898	13.6354	14.3869	15.1430	15.9024	
3490	3.3085	3.7075	4.1376	4.5993	5.0925	5.6163	6.1695	6.7505	7.3574	7.9882	8.6408	9.3128	10.0021	10.7066	11.4241	12.1528	12.8907	13.6362	14.3878	15.1438	15.9032	
3492	3.3148	3.7131	4.1426	4.6037	5.0963	5.6196	6.1723	6.7529	7.3595	7.9900	8.6423	9.3141	10.0033	10.7076	11.4251	12.1537	12.8916	13.6371	14.3886	15.1447	15.9040	
3494	3.3210	3.7187	4.1476	4.6081	5.1002	5.6231	6.1754	6.7557	7.3620	7.9923	8.6444	9.3162	10.0053	10.7096	11.4270	12.1556	12.8935	13.6390	14.3905	15.1465	15.9059	
3496	3.3272	3.7242	4.1525	4.6125	5.1041	5.6265	6.1785	6.7584	7.3645	7.9946	8.6466	9.3182	10.0072	10.7115	11.4289	12.1575	12.8953	13.6408	14.3923	15.1484	15.9078	
3498	3.3333	3.7297	4.1574	4.6168	5.1079	5.6299	6.1815	6.7611	7.3669	7.9969	8.6487	9.3202	10.0092	10.7134	11.4308	12.1593	12.8972	13.6427	14.3942	15.1503	15.9096	
3500	3.3395	3.7352	4.1623	4.6212	5.1117	5.6332	6.1845	6.7638	7.3694	7.9991	8.6508	9.3222	10.0111	10.7152	11.4326	12.1612	12.8990	13.6445	14.3960	15.1521	15.9115	
3502	3.3456	3.7407	4.1671	4.6254	5.1155	5.6366	6.1874	6.7665	7.3718	8.0013	8.6529	9.3242	10.0130	10.7171	11.4344	12.1630	12.9008	13.6463	14.3978	15.1539	15.9133	
3504	3.3517	3.7461	4.1719	4.6297	5.1193	5.6399	6.1904	6.7691	7.3742	8.0035	8.6549	9.3261	10.0148	10.7189	11.4362	12.1648	12.9026	13.6481	14.3996	15.1557	15.9151	
3506	3.3578	3.7516	4.1768	4.6340	5.1230	5.6432	6.1933	6.7717	7.3765	8.0056	8.6569	9.3280	10.0166	10.7207	11.4380	12.1665	12.9043	13.6498	14.4014	15.1575	15.9168	
3508	3.3640	3.7572	4.1817	4.6383	5.1268	5.6465	6.1962	6.7743	7.3788	8.0078	8.6588	9.3298	10.0184	10.7224	11.4396	12.1681	12.9060	13.6515	14.4030	15.1591	15.9185	
3510	3.3702	3.7627	4.1866	4.6426	5.1306	5.6498	6.1991	6.7768	7.3811	8.0098	8.6608	9.3316	10.0201	10.7241	11.4413	12.1698	12.9076	13.6531	14.4047	15.1608	15.9201	
3512	3.3764	3.7682	4.1914	4.6469	5.1343	5.6531	6.2020	6.7794	7.3834	8.0119	8.6627	9.3334	10.0218	10.7257	11.4429	12.1714	12.9093	13.6548	14.4063	15.1624	15.9218	
3514	3.3825	3.7736	4.1963	4.6511	5.1380	5.6563	6.2048	6.7819	7.3856	8.0139	8.6645	9.3352	10.0235	10.7274	11.4445	12.1730	12.9109	13.6564	14.4079	15.1640	15.9234	
3516	3.3886	3.7791	4.2011	4.6553	5.1417	5.6595	6.2076	6.7844	7.3879	8.0159	8.6664	9.3369	10.0252	10.7290	11.4461	12.1746	12.9124	13.6580	14.4095	15.1657	15.9250	
3518	3.3948	3.7846	4.2060	4.6597	5.1455	5.6629	6.2107	6.7871	7.3903	8.0182	8.6684	9.3388	10.0270	10.7308	11.4479	12.1763	12.9141	13.6597	14.4112	15.1673	15.9267	
3520	3.4012	3.7905	4.2114	4.6645	5.1500	5.6670	6.2143	6.7904	7.3933	8.0210	8.6711	9.3413	10.0294	10.7330	11.4500	12.1784	12.9162	13.6617	14.4132	15.1693	15.9286	
3522	3.4077	3.7964	4.2167	4.6694	5.1544	5.6710	6.2179	6.7937	7.3964	8.0238	8.6737	9.3438	10.0318	10.7353	11.4522	12.1805	12.9183	13.6637	14.4152	15.1712	15.9305	
3524	3.4141	3.8022	4.2221	4.6743	5.1588	5.6749	6.2216	6.7970	7.3994	8.0266	8.6763	9.3463	10.0341	10.7375	11.4544	12.1826	12.9203	13.6657	14.4171	15.1731	15.9324	
3526	3.4205	3.8081	4.2274	4.6791	5.1631	5.6789	6.2251	6.8003	7.4024	8.0294	8.6789	9.3487	10.0364	10.7397	11.4565	12.1847	12.9223	13.6677	14.4191	15.1750	15.9343	
3528	3.4269	3.8139	4.2327	4.6839	5.1675	5.6828	6.2287	6.8035	7.4054	8.0321	8.6815	9.3511	10.0387	10.7419	11.4586	12.1867	12.9243	13.6696	14.4210	15.1769	15.9361	
3530	3.4332	3.8197	4.2380	4.6887	5.1718	5.6867	6.2323	6.8068	7.4084	8.0349	8.6840	9.3535	10.0410	10.7441	11.4607	12.1888	12.9263	13.6716	14.4229	15.1788	15.9379	
3532	3.4396	3.8255	4.2432	4.6934	5.1761	5.6906	6.2358	6.8100	7.4113	8.0376	8.6866	9.3559	10.0432	10.7462	11.4628	12.1908	12.9283	13.6735	14.4248	15.1806	15.9397	
3534	3.4460	3.8313	4.2485	4.6982	5.1804	5.6945	6.2393	6.8132	7.4142	8.0403	8.6891	9.3582	10.0454	10.7484	11.4648	12.1928	12.9302	13.6754	14.4266	15.1825	15.9415	
3536	3.4523	3.8371	4.2537	4.7029	5.1846	5.6983	6.2427	6.8163	7.4171	8.0429	8.6916	9.3606	10.0477	10.7505	11.4669	12.1947	12.9321	13.6772	14.4285	15.1843	15.9433	
3538	3.4586	3.8428	4.2589	4.7076	5.1889	5.7021	6.2462	6.8195	7.4200	8.0456	8.6940	9.3629	10.0498	10.7526	11.4689	12.1967	12.9340	13.6791	14.4303	15.1860	15.9451	
3540	3.4649	3.8486	4.2641	4.7122	5.1931	5.7059	6.2496	6.8226	7.4228	8.0482	8.6965	9.3652	10.0520	10.7546	11.4709	12.1986	12.9359	13.6809	14.4321	15.1878	15.9468	
3542	3.4712	3.8543	4.2692	4.7169	5.1972	5.7097	6.2530	6.8257	7.4256	8.0508	8.6989	9.3674	10.0542	10.7567	11.4729	12.2005	12.9378	13.6828	14.4339	15.1896	15.9485	
3544	3.4775	3.8600	4.2744	4.7215	5.2014	5.7135	6.2564	6.8288	7.4285	8.0534	8.7013	9.3697	10.0563	10.7588	11.4749	12.2025	12.9397	13.6846	14.4357	15.1914	15.9503	
3546	3.4838	3.8657	4.2795	4.7261	5.2056	5.7172	6.2599	6.8319	7.4314	8.0561	8.7038	9.3721	10.0586	10.7610	11.4770	12.2046	12.9417	13.6866	14.4377	15.1933	15.9522	
3548	3.4900	3.8713	4.2846	4.7308	5.2098	5.7210	6.2633	6.8350	7.4342	8.0588	8.7063	9.3745	10.0609	10.7632	11.4791	12.2066	12.9437	13.6886	14.4396	15.1952	15.9541	
3550	3.4963	3.8770	4.2897	4.7353	5.2139	5.7247	6.2666	6.8381	7.4370	8.0614	8.7088	9.3768	10.0631	10.7653	11.4812	12.2087	12.9457	13.6906	14.4416	15.1971	15.9560	
3552	3.5025	3.8826	4.2948	4.7399	5.2180	5.7284	6.2700	6.8411	7.4399	8.0640	8.7112	9.3791	10.0653	10.7674	11.4833	12.2107	12.9477	13.6925	14.4435	15.1990	15.9578	
3554	3.5087	3.8882	4.2998	4.7445	5.2221	5.7321	6.2733	6.8442	7.4426	8.0666	8.7136	9.3814	10.0675	10.7695	11.4853	12.2127	12.9497	13.6944	14.4454	15.2009	15.9596	
3556	3.5149	3.8938	4.3049	4.7490	5.2261	5.7358	6.2766	6.8472	7.4454	8.0691	8.7160	9.3837	10.0696	10.7716	11.4873	12.2147	12.9516	13.6963	14.4472	15.2027	15.9614	
3558	3.5210	3.8993	4.3097	4.7533	5.2300	5.7391	6.2797	6.8499	7.4479	8.0714	8.7181	9.3856	10.0715	10.7734	11.4891	12.2164	12.9534	13.6981	14.4490	15.2045	15.9632	
3560	3.5270	3.9047	4.3146	4.7576	5.2338	5.7425	6.2826	6.8526	7.4503	8.0736	8.7202	9.3876	10.0734	10.7752	11.4909	12.2182	12.9551	13.6999	14.4507	15.2062	15.9650	
3562	3.5331	3.9101	4.3194	4.7618	5.2375	5.7458	6.2856	6.8552	7.4527	8.0758	8.7222	9.3895	10.0752	10.7770	11.4926	12.2199	12.9568	13.7016	14.4525	15.2080	15.9667	
3564	3.5391	3.9155	4.3241	4.7660	5.2412	5.7491	6.2885	6.8578	7.4550	8.0779	8.7242	9.3914	10.0770	10.7788	11.4943	12.2216	12.9585	13.7033	14.4542	15.2097	15.9684	
3566	3.5451	3.9208	4.3289	4.7703	5.2450	5.7524	6.2914	6.8604	7.4574	8.0801	8.7262	9.3932	10.0788	10.7805	11.4960	12.2233	12.9602	13.7050	14.4559	15.2114	15.9702	
3568	3.5511	3.9262	4.3336	4.7744	5.2487	5.7557	6.2943	6.8630	7.4597	8.0822	8.7281	9.3951	10.0806	10.7822	11.4977	12.2250	12.9619	13.7066	14.4576	15.2131	15.9718	
3570	3.5571	3.9315	4.3383	4.7786	5.2523	5.7589	6.2972	6.8655	7.4620	8.0843	8.7301	9.3969	10.0823	10.7839	11.4994	12.2266	12.9635	13.7083	14.4592	15.2147	15.9735	
3572	3.5631	3.9368	4.3430	4.7827	5.2560	5.7621	6.3000	6.8681	7.4642	8.0863	8.7319	9.3986	10.0840	10.7855	11.5010	12.2282	12.9651	13.7098	14.4608	15.2163	15.9751	
3574	3.5690	3.9421	4.3477	4.7868	5.2596	5.7653	6.3028	6.8705	7.4665	8.0884	8.7338	9.4004	10.0856	10.7871	11.5025	12.2297	12.9666	13.7114	14.4623	15.2179	15.9767	
3576	3.5749	3.9473	4.3523	4.7909	5.2632	5.7684	6.3056	6.8730	7.4687	8.0904	8.7357	9.4021	10.0873	10.7887	11.5041	12.2313	12.9682	13.7129	14.4639	15.2194	15.9782	
3578	3.5808	3.9525	4.3569	4.7950	5.2667	5.7716	6.3084	6.8755	7.4709	8.0923	8.7375	9.4038	10.0889	10.7903	11.5056	12.2328	12.9697	13.7145	14.4654	15.2210	15.9798	
3580	3.5867	3.9578	4.3615	4.7990	5.2703	5.7747	6.3111	6.8779	7.4730	8.0943	8.7393	9.4055	10.0905	10.7918	11.5072	12.2343	12.9712	13.7160	14.4669	15.2225	15.9813	
3582	3.5926	3.9629	4.3661	4.8030	5.2738	5.7778	6.3138	6.8803	7.4752	8.0963	8.7411	9.4072	10.0921	10.7934	11.5087	12.2358	12.9727	13.7175	14.4684	15.2240	15.9828	
3584	3.5984	3.9681	4.3707	4.8070	5.2773	5.7808	6.3165	6.8827	7.4773	8.0982	8.7429	9.4089	10.0937	10.7949	11.5101	12.2372	12.9741	13.7189	14.4699	15.2255	15.9843	
3586	3.6043	3.9733	4.3752	4.8110	5.2807	5.7839	6.3192	6.8850	7.4794	8.1001	8.7446	9.4105	10.0952	10.7964	11.5116	12.2387	12.9756	13.7204	14.4714	15.2270	15.9858	
3588	3.6101	3.9784	4.3797	4.8149	5.2842	5.7869	6.3218	6.8874	7.4815	8.1020	8.7463	9.4121	10.0968	10.7979	11.5131	12.2401	12.9770	13.7218	14.4728	15.2284	15.9872	
3590	3.6159	3.9835	4.3841	4.8188	5.2876	5.7899	6.3244	6.8897	7.4836	8.1038	8.7480	9.4137	10.0983	10.7993	11.5145	12.2415	12.9784	13.7232	14.4742	15.2298	15.9887	
3592	3.6216	3.9885	4.3886	4.8227	5.2910	5.7928	6.3270	6.8920	7.4856	8.1057	8.7497	9.4153	10.0998	10.8008	11.5159	12.2429	12.9798	13.7246	14.4756	15.2313	15.9901	
3594	3.6274	3.9936	4.3930	4.8266	5.2944	5.7958	6.3296	6.8942	7.4876	8.1075	8.7514	9.4168	10.1012	10.8022	11.5173	12.2443	12.9812	13.7260	14.4770	15.2327	15.9915	
3596	3.6331	3.9986	4.3974	4.8304	5.2977	5.7987	6.3322	6.8965	7.4896	8.1093	8.7530	9.4184	10.1027	10.8036	11.5187	12.2457	12.9826	13.7274	14.4784	15.2341	15.9929	
3598	3.6388	4.0036	4.4018	4.8342	5.3010	5.8016	6.3347	6.8987	7.4916	8.1111	8.7547	9.4199	10.1041	10.8050	11.5200	12.2470	12.9839	13.7287	14.4798	15.2354	15.9943	
3600	3.6445	4.0086	4.4062	4.8380	5.3043	5.8044	6.3372	6.9009	7.4935	8.1128	8.7563	9.4214	10.1055	10.8063	11.5213	12.2483	12.9852	13.7300	14.4811	15.2368	15.9957	
3602	3.6502	4.0136	4.4105	4.8418	5.3076	5.8073	6.3397	6.9031	7.4955	8.1146	8.7579	9.4228	10.1069	10.8077	11.5227	12.2496	12.9865	13.7314	14.4824	15.2381	15.9970	
3604	3.6558	4.0185	4.4148	4.8455	5.3108	5.8101	6.3421	6.9052	7.4974	8.1163	8.7594	9.4243	10.1083	10.8090	11.5240	12.2509	12.9878	13.7327	14.4837	15.2394	15.9983	
3606	3.6614	4.0234	4.4191	4.8492	5.3141	5.8129	6.3446	6.9074	7.4993	8.1180	8.7610	9.4257	10.1097	10.8103	11.5252	12.2522	12.9891	13.7339	14.4850	15.2407	15.9996	
3608	3.6670	4.0283	4.4233	4.8529	5.3173	5.8157	6.3470	6.9095	7.5011	8.1196	8.7625	9.4271	10.1110	10.8116	11.5265	12.2535	12.9903	13.7352	14.4863	15.2420	16.0009	
3610	3.6726	4.0332	4.4275	4.8566	5.3204	5.8184	6.3494	6.9116	7.5030	8.1213	8.7640	9.4285	10.1123	10.8129	11.5277	12.2547	12.9915	13.7364	14.4875	15.2432	16.0022	
3612	3.6781	4.0380	4.4317	4.8602	5.3236	5.8212	6.3517	6.9136	7.5048	8.1229	8.7655	9.4299	10.1136	10.8141	11.5289	12.2559	12.9927	13.7376	14.4887	15.2445	16.0034	
3614	3.6837	4.0428	4.4359	4.8639	5.3267	5.8239	6.3541	6.9157	7.5066	8.1245	8.7669	9.4312	10.1149	10.8153	11.5301	12.2570	12.9939	13.7388	14.4899	15.2457	16.0046	
3616	3.6892	4.0476	4.4401	4.8674	5.3298	5.8265	6.3564	6.9177	7.5084	8.1261	8.7683	9.4325	10.1161	10.8165	11.5313	12.2582	12.9950	13.7399	14.4911	15.2468	16.0058	
3618	3.6947	4.0524	4.4442	4.8710	5.3329	5.8292	6.3587	6.9197	7.5101	8.1276	8.7697	9.4338	10.1173	10.8177	11.5324	12.2593	12.9962	13.7411	14.4922	15.2480	16.0070	
3620	3.7001	4.0571	4.4483	4.8745	5.3359	5.8318	6.3609	6.9216	7.5118	8.1292	8.7711	9.4351	10.1185	10.8188	11.5335	12.2604	12.9973	13.7422	14.4933	15.2491	16.0081	
3622	3.7055	4.0618	4.4524	4.8781	5.3389	5.8344	6.3632	6.9236	7.5135	8.1307	8.7725	9.4364	10.1197	10.8199	11.5347	12.2615	12.9984	13.7433	14.4945	15.2503	16.0093	
3624	3.7110	4.0665	4.4564	4.8815	5.3419	5.8370	6.3654	6.9255	7.5152	8.1322	8.7738	9.4376	10.1209	10.8211	11.5357	12.2626	12.9995	13.7444	14.4956	15.2514	16.0104	
3626	3.7163	4.0712	4.4604	4.8850	5.3449	5.8395	6.3676	6.9274	7.5169	8.1336	8.7752	9.4388	10.1220	10.8222	11.5368	12.2637	13.0005	13.7455	14.4966	15.2525	16.0115	
3628	3.7217	4.0758	4.4644	4.8884	5.3479	5.8421	6.3698	6.9293	7.5185	8.1351	8.7765	9.4400	10.1231	10.8232	11.5379	12.2647	13.0016	13.7465	14.4977	15.2536	16.0126	
3630	3.7270	4.0804	4.4684	4.8918	5.3508	5.8446	6.3719	6.9312	7.5201	8.1365	8.7778	9.4412	10.1243	10.8243	11.5389	12.2657	13.0026	13.7475	14.4988	15.2546	16.0137	
3632	3.7324	4.0850	4.4723	4.8952	5.3537	5.8470	6.3741	6.9330	7.5217	8.1379	8.7790	9.4424	10.1253	10.8254	11.5399	12.2667	13.0036	13.7486	14.4998	15.2557	16.0148	
3634	3.7376	4.0896	4.4763	4.8986	5.3566	5.8495	6.3762	6.9348	7.5233	8.1393	8.7803	9.4435	10.1264	10.8264	11.5409	12.2677	13.0046	13.7496	14.5008	15.2567	16.0158	
3636	3.7429	4.0941	4.4802	4.9019	5.3594	5.8519	6.3782	6.9366	7.5249	8.1407	8.7815	9.4446	10.1275	10.8274	11.5419	12.2687	13.0056	13.7506	14.5018	15.2577	16.0168	
3638	3.7481	4.0986	4.4840	4.9052	5.3622	5.8543	6.3803	6.9384	7.5264	8.1421	8.7827	9.4458	10.1285	10.8284	11.5429	12.2697	13.0065	13.7515	14.5028	15.2587	16.0178	
3640	3.7534	4.1031	4.4879	4.9085	5.3650	5.8567	6.3823	6.9401	7.5279	8.1434	8.7839	9.4468	10.1295	10.8293	11.5438	12.2706	13.0075	13.7525	14.5038	15.2597	16.0188	
3642	3.7585	4.1075	4.4917	4.9117	5.3678	5.8591	6.3843	6.9418	7.5294	8.1447	8.7851	9.4479	10.1305	10.8303	11.5447	12.2715	13.0084	13.7534	14.5047	15.2607	16.0198	
3644	3.7637	4.1120	4.4954	4.9150	5.3705	5.8614	6.3863	6.9435	7.5309	8.1460	8.7862	9.4490	10.1315	10.8312	11.5457	12.2724	13.0093	13.7543	14.5057	15.2616	16.0208	
3646	3.7688	4.1164	4.4992	4.9182	5.3733	5.8637	6.3883	6.9452	7.5323	8.1473	8.7874	9.4500	10.1325	10.8321	11.5466	12.2733	13.0102	13.7552	14.5066	15.2626	16.0217	
3648	3.7740	4.1207	4.5029	4.9213	5.3759	5.8660	6.3902	6.9469	7.5338	8.1485	8.7885	9.4510	10.1334	10.8330	11.5474	12.2742	13.0111	13.7561	14.5075	15.2635	16.0227	
3650	3.7790	4.1251	4.5066	4.9245	5.3786	5.8683	6.3922	6.9485	7.5352	8.1497	8.7896	9.4520	10.1343	10.8339	11.5483	12.2750	13.0119	13.7570	14.5084	15.2644	16.0236	
3652	3.7841	4.1294	4.5103	4.9276	5.3813	5.8705	6.3941	6.9501	7.5366	8.1509	8.7906	9.4530	10.1352	10.8348	11.5491	12.2759	13.0128	13.7578	14.5092	15.2653	16.0245	
3654	3.7891	4.1337	4.5140	4.9307	5.3839	5.8727	6.3959	6.9517	7.5379	8.1521	8.7917	9.4539	10.1361	10.8356	11.5500	12.2767	13.0136	13.7587	14.5101	15.2661	16.0254	
3656	3.7941	4.1379	4.5176	4.9338	5.3865	5.8749	6.3978	6.9533	7.5393	8.1533	8.7927	9.4548	10.1370	10.8365	11.5508	12.2775	13.0144	13.7595	14.5109	15.2670	16.0263	
3658	3.7991	4.1422	4.5212	4.9368	5.3890	5.8771	6.3996	6.9549	7.5406	8.1544	8.7937	9.4558	10.1378	10.8373	11.5516	12.2783	13.0152	13.7603	14.5117	15.2678	16.0271	
3660	3.8040	4.1464	4.5247	4.9398	5.3916	5.8792	6.4014	6.9564	7.5419	8.1556	8.7947	9.4567	10.1387	10.8381	11.5523	12.2790	13.0160	13.7611	14.5125	15.2687	16.0280	
3662	3.8090	4.1506	4.5283	4.9428	5.3941	5.8813	6.4032	6.9579	7.5432	8.1567	8.7957	9.4575	10.1395	10.8388	11.5531	12.2798	13.0167	13.7619	14.5133	15.2695	16.0288	
3664	3.8138	4.1547	4.5318	4.9458	5.3966	5.8834	6.4050	6.9594	7.5445	8.1578	8.7967	9.4584	10.1403	10.8396	11.5538	12.2805	13.0175	13.7626	14.5141	15.2703	16.0296	
3666	3.8187	4.1588	4.5353	4.9487	5.3991	5.8855	6.4067	6.9608	7.5457	8.1588	8.7976	9.4592	10.1411	10.8403	11.5545	12.2812	13.0182	13.7634	14.5149	15.2710	16.0304	
3668	3.8235	4.1629	4.5387	4.9516	5.4015	5.8876	6.4084	6.9623	7.5469	8.1599	8.7985	9.4601	10.1418	10.8411	11.5552	12.2819	13.0189	13.7641	14.5156	15.2718	16.0312	
3670	3.8283	4.1670	4.5422	4.9545	5.4039	5.8896	6.4101	6.9637	7.5481	8.1609	8.7994	9.4609	10.1426	10.8418	11.5559	12.2826	13.0196	13.7648	14.5163	15.2725	16.0319	
3672	3.8331	4.1710	4.5456	4.9574	5.4063	5.8916	6.4118	6.9651	7.5493	8.1619	8.8003	9.4617	10.1433	10.8424	11.5566	12.2833	13.0203	13.7655	14.5170	15.2733	16.0327	
3674	3.8379	4.1750	4.5489	4.9602	5.4087	5.8935	6.4134	6.9665	7.5504	8.1629	8.8011	9.4624	10.1440	10.8431	11.5572	12.2839	13.0209	13.7661	14.5177	15.2740	16.0334	
3676	3.8426	4.1790	4.5523	4.9630	5.4110	5.8955	6.4150	6.9678	7.5516	8.1639	8.8020	9.4632	10.1447	10.8438	11.5579	12.2846	13.0216	13.7668	14.5184	15.2747	16.0341	
3678	3.8473	4.1829	4.5556	4.9658	5.4133	5.8974	6.4166	6.9691	7.5527	8.1648	8.8028	9.4639	10.1453	10.8444	11.5585	12.2852	13.0222	13.7674	14.5191	15.2754	16.0348	
3680	3.8519	4.1869	4.5589	4.9685	5.4156	5.8993	6.4182	6.9704	7.5538	8.1657	8.8036	9.4646	10.1460	10.8450	11.5591	12.2858	13.0228	13.7681	14.5197	15.2760	16.0355	
3682	3.8566	4.1908	4.5621	4.9712	5.4179	5.9012	6.4198	6.9717	7.5549	8.1667	8.8044	9.4653	10.1466	10.8456	11.5597	12.2864	13.0234	13.7687	14.5203	15.2767	16.0362	
3684	3.8612	4.1946	4.5654	4.9739	5.4201	5.9030	6.4213	6.9730	7.5559	8.1675	8.8052	9.4660	10.1472	10.8462	11.5602	12.2869	13.0240	13.7693	14.5210	15.2773	16.0368	
3686	3.8657	4.1984	4.5686	4.9766	5.4223	5.9049	6.4228	6.9742	7.5570	8.1684	8.8059	9.4666	10.1478	10.8468	11.5608	12.2875	13.0245	13.7698	14.5215	15.2779	16.0375	
3688	3.8703	4.2022	4.5717	4.9792	5.4245	5.9067	6.4243	6.9755	7.5580	8.1693	8.8066	9.4673	10.1484	10.8473	11.5613	12.2880	13.0251	13.7704	14.5221	15.2785	16.0381	
3690	3.8748	4.2060	4.5749	4.9819	5.4267	5.9084	6.4257	6.9767	7.5590	8.1701	8.8073	9.4679	10.1490	10.8478	11.5618	12.2885	13.0256	13.7710	14.5227	15.2791	16.0387	
3692	3.8793	4.2098	4.5780	4.9844	5.4288	5.9102	6.4272	6.9778	7.5599	8.1709	8.8080	9.4685	10.1495	10.8483	11.5623	12.2890	13.0261	13.7715	14.5232	15.2797	16.0393	
3694	3.8837	4.2135	4.5811	4.9870	5.4309	5.9119	6.4286	6.9790	7.5609	8.1717	8.8087	9.4691	10.1501	10.8488	11.5628	12.2895	13.0266	13.7720	14.5238	15.2803	16.0399	
3696	3.8881	4.2171	4.5841	4.9895	5.4330	5.9136	6.4300	6.9801	7.5618	8.1725	8.8093	9.4696	10.1506	10.8493	11.5633	12.2900	13.0271	13.7725	14.5243	15.2808	16.0404	
3698	3.8925	4.2208	4.5872	4.9920	5.4351	5.9153	6.4314	6.9813	7.5627	8.1732	8.8100	9.4702	10.1511	10.8498	11.5637	12.2904	13.0275	13.7730	14.5248	15.2813	16.0410	
3700	3.8969	4.2244	4.5902	4.9945	5.4371	5.9170	6.4327	6.9823	7.5636	8.1739	8.8106	9.4707	10.1515	10.8502	11.5642	12.2909	13.0280	13.7734	14.5253	15.2818	16.0415	
3702	3.9012	4.2280	4.5931	4.9970	5.4391	5.9186	6.4340	6.9834	7.5645	8.1747	8.8112	9.4712	10.1520	10.8506	11.5646	12.2913	13.0284	13.7739	14.5258	15.2823	16.0421	
3704	3.9055	4.2315	4.5961	4.9993	5.4410	5.9202	6.4353	6.9844	7.5653	8.1753	8.8117	9.4716	10.1523	10.8509	11.5649	12.2916	13.0287	13.7742	14.5261	15.2827	16.0425	
3706	3.9097	4.2350	4.5989	5.0017	5.4429	5.9217	6.4365	6.9853	7.5660	8.1758	8.8121	9.4720	10.1526	10.8512	11.5651	12.2918	13.0290	13.7745	14.5264	15.2831	16.0428	
3708	3.9139	4.2385	4.6018	5.0040	5.4448	5.9232	6.4377	6.9863	7.5667	8.1763	8.8125	9.4723	10.1529	10.8514	11.5653	12.2920	13.0292	13.7747	14.5267	15.2834	16.0432	
3710	3.9181	4.2420	4.6046	5.0063	5.4467	5.9247	6.4388	6.9871	7.5674	8.1769	8.8129	9.4726	10.1531	10.8516	11.5655	12.2922	13.0294	13.7750	14.5270	15.2837	16.0435	
3712	3.9222	4.2454	4.6074	5.0086	5.4485	5.9261	6.4399	6.9880	7.5680	8.1774	8.8133	9.4729	10.1533	10.8518	11.5657	12.2924	13.0296	13.7752	14.5272	15.2840	16.0439	
3714	3.9264	4.2488	4.6102	5.0108	5.4503	5.9275	6.4410	6.9889	7.5687	8.1778	8.8136	9.4731	10.1535	10.8520	11.5658	12.2926	13.0298	13.7754	14.5275	15.2842	16.0442	
3716	3.9304	4.2521	4.6129	5.0130	5.4521	5.9289	6.4421	6.9897	7.5693	8.1783	8.8140	9.4734	10.1537	10.8521	11.5660	12.2927	13.0300	13.7756	14.5277	15.2845	16.0445	
3718	3.9345	4.2554	4.6156	5.0152	5.4538	5.9303	6.4432	6.9905	7.5699	8.1787	8.8143	9.4736	10.1539	10.8523	11.5661	12.2928	13.0301	13.7758	14.5279	15.2847	16.0447	
3720	3.9385	4.2587	4.6183	5.0174	5.4555	5.9317	6.4442	6.9913	7.5705	8.1792	8.8146	9.4738	10.1540	10.8524	11.5662	12.2930	13.0303	13.7760	14.5281	15.2850	16.0450	
3722	3.9425	4.2620	4.6209	5.0195	5.4572	5.9330	6.4453	6.9921	7.5710	8.1796	8.8148	9.4740	10.1542	10.8525	11.5663	12.2931	13.0304	13.7761	14.5283	15.2852	16.0452	
3724	3.9464	4.2652	4.6236	5.0216	5.4589	5.9343	6.4463	6.9928	7.5716	8.1799	8.8151	9.4742	10.1543	10.8526	11.5664	12.2932	13.0305	13.7762	14.5285	15.2854	16.0455	
3726	3.9503	4.2684	4.6261	5.0237	5.4605	5.9356	6.4472	6.9935	7.5721	8.1803	8.8154	9.4744	10.1544	10.8527	11.5665	12.2932	13.0306	13.7763	14.5286	15.2856	16.0457	
3728	3.9542	4.2715	4.6287	5.0257	5.4622	5.9368	6.4482	6.9942	7.5726	8.1806	8.8156	9.4745	10.1545	10.8527	11.5665	12.2933	13.0306	13.7765	14.5287	15.2857	16.0459	
3730	3.9581	4.2747	4.6312	5.0278	5.4637	5.9381	6.4491	6.9949	7.5731	8.1810	8.8158	9.4746	10.1546	10.8528	11.5666	12.2933	13.0307	13.7765	14.5289	15.2859	16.0461	
3732	3.9619	4.2778	4.6337	5.0298	5.4653	5.9393	6.4500	6.9956	7.5735	8.1813	8.8160	9.4747	10.1546	10.8528	11.5666	12.2933	13.0307	13.7766	14.5290	15.2860	16.0463	
3734	3.9657	4.2808	4.6362	5.0317	5.4669	5.9404	6.4509	6.9962	7.5740	8.1816	8.8162	9.4748	10.1547	10.8528	11.5666	12.2933	13.0308	13.7767	14.5290	15.2862	16.0464	
3736	3.9694	4.2839	4.6386	5.0337	5.4684	5.9416	6.4518	6.9968	7.5744	8.1818	8.8163	9.4749	10.1547	10.8528	11.5666	12.2933	13.0308	13.7767	14.5291	15.2863	16.0466	
3738	3.9731	4.2869	4.6410	5.0356	5.4699	5.9427	6.4526	6.9974	7.5748	8.1821	8.8164	9.4749	10.1547	10.8528	11.5665	12.2933	13.0308	13.7767	14.5292	15.2864	16.0467	
3740	3.9768	4.2898	4.6434	5.0375	5.4713	5.9439	6.4534	6.9980	7.5752	8.1823	8.8166	9.4750	10.1547	10.8527	11.5665	12.2933	13.0308	13.7767	14.5292	15.2864	16.0468	
3742	3.9804	4.2928	4.6458	5.0393	5.4728	5.9449	6.4542	6.9986	7.5756	8.1825	8.8167	9.4750	10.1546	10.8527	11.5664	12.2932	13.0307	13.7767	14.5293	15.2865	16.0469	
3744	3.9840	4.2957	4.6481	5.0411	5.4742	5.9460	6.4550	6.9991	7.5759	8.1827	8.8167	9.4750	10.1546	10.8526	11.5663	12.2932	13.0307	13.7767	14.5293	15.2866	16.0470	
3746	3.9875	4.2985	4.6503	5.0429	5.4755	5.9470	6.4557	6.9995	7.5761	8.1828	8.8167	9.4749	10.1545	10.8525	11.5662	12.2931	13.0306	13.7767	14.5293	15.2866	16.0471	
3748	3.9910	4.3012	4.6525	5.0445	5.4767	5.9479	6.4563	6.9999	7.5763	8.1829	8.8167	9.4748	10.1543	10.8523	11.5661	12.2929	13.0305	13.7767	14.5293	15.2867	16.0472	
3750	3.9945	4.3040	4.6546	5.0462	5.4780	5.9488	6.4569	7.0003	7.5765	8.1830	8.8167	9.4747	10.1542	10.8522	11.5659	12.2928	13.0305	13.7766	14.5293	15.2867	16.0473	
3752	3.9979	4.3067	4.6567	5.0478	5.4792	5.9496	6.4575	7.0007	7.5767	8.1830	8.8166	9.4746	10.1540	10.8520	11.5658	12.2927	13.0303	13.7765	14.5293	15.2868	16.0474	
3754	4.0012	4.3093	4.6588	5.0494	5.4804	5.9505	6.4581	7.0010	7.5769	8.1830	8.8165	9.4745	10.1539	10.8518	11.5656	12.2925	13.0302	13.7765	14.5292	15.2868	16.0475	
3756	4.0046	4.3120	4.6609	5.0510	5.4816	5.9513	6.4586	7.0013	7.5770	8.1830	8.8164	9.4743	10.1537	10.8516	11.5654	12.2923	13.0301	13.7764	14.5292	15.2868	16.0475	
3758	4.0079	4.3146	4.6629	5.0525	5.4827	5.9521	6.4591	7.0016	7.5771	8.1830	8.8163	9.4741	10.1535	10.8514	11.5652	12.2922	13.0299	13.7763	14.5292	15.2868	16.0476	
3760	4.0109	4.3169	4.6647	5.0539	5.4837	5.9528	6.4596	7.0019	7.5773	8.1830	8.8163	9.4741	10.1534	10.8513	11.5651	12.2922	13.0300	13.7764	14.5293	15.2870	16.0478	
3762	4.0139	4.3192	4.6665	5.0552	5.4846	5.9535	6.4600	7.0021	7.5773	8.1830	8.8162	9.4740	10.1533	10.8512	11.5651	12.2921	13.0300	13.7764	14.5294	15.2872	16.0481	
3764	4.0168	4.3215	4.6682	5.0565	5.4856	5.9541	6.4604	7.0023	7.5774	8.1830	8.8161	9.4738	10.1531	10.8511	11.5650	12.2921	13.0300	13.7765	14.5295	15.2873	16.0483	
3766	4.0198	4.3238	4.6699	5.0578	5.4865	5.9547	6.4608	7.0025	7.5775	8.1829	8.8160	9.4737	10.1530	10.8510	11.5649	12.2920	13.0300	13.7765	14.5296	15.2875	16.0485	
3768	4.0226	4.3260	4.6716	5.0590	5.4873	5.9553	6.4611	7.0027	7.5775	8.1829	8.8159	9.4735	10.1528	10.8508	11.5648	12.2920	13.0300	13.7766	14.5297	15.2876	16.0487	
3770	4.0255	4.3282	4.6732	5.0602	5.4882	5.9558	6.4614	7.0028	7.5775	8.1828	8.8157	9.4734	10.1527	10.8507	11.5646	12.2919	13.0299	13.7766	14.5298	15.2877	16.0488	
3772	4.0283	4.3303	4.6749	5.0614	5.4890	5.9564	6.4618	7.0030	7.5775	8.1827	8.8156	9.4732	10.1525	10.8505	11.5645	12.2918	13.0299	13.7766	14.5298	15.2878	16.0490	
3774	4.0313	4.3327	4.6767	5.0629	5.4902	5.9572	6.4624	7.0034	7.5778	8.1829	8.8157	9.4732	10.1525	10.8505	11.5645	12.2917	13.0299	13.7766	14.5299	15.2879	16.0491	
3776	4.0342	4.3350	4.6785	5.0643	5.4912	5.9581	6.4630	7.0038	7.5781	8.1830	8.8158	9.4732	10.1524	10.8504	11.5644	12.2917	13.0298	13.7766	14.5299	15.2880	16.0492	
3778	4.0371	4.3372	4.6803	5.0657	5.4923	5.9588	6.4635	7.0042	7.5783	8.1832	8.8158	9.4732	10.1524	10.8504	11.5644	12.2917	13.0298	13.7766	14.5299	15.2880	16.0493	
3780	4.0399	4.3395	4.6821	5.0670	5.4933	5.9596	6.4641	7.0046	7.5786	8.1833	8.8159	9.4732	10.1524	10.8503	11.5643	12.2916	13.0298	13.7766	14.5299	15.2881	16.0493	
3782	4.0427	4.3417	4.6838	5.0683	5.4943	5.9603	6.4646	7.0049	7.5788	8.1834	8.8159	9.4732	10.1523	10.8502	11.5642	12.2915	13.0297	13.7765	14.5299	15.2881	16.0494	
3784	4.0455	4.3439	4.6855	5.0696	5.4953	5.9611	6.4651	7.0052	7.5790	8.1835	8.8159	9.4731	10.1522	10.8501	11.5641	12.2914	13.0296	13.7765	14.5299	15.2881	16.0494	
3786	4.0482	4.3460	4.6871	5.0709	5.4963	5.9618	6.4656	7.0055	7.5791	8.1835	8.8159	9.4731	10.1521	10.8500	11.5640	12.2913	13.0295	13.7764	14.5299	15.2881	16.0494	
3788	4.0509	4.3481	4.6888	5.0722	5.4972	5.9624	6.4660	7.0058	7.5793	8.1836	8.8158	9.4730	10.1520	10.8499	11.5638	12.2912	13.0294	13.7763	14.5298	15.2880	16.0494	
3790	4.0535	4.3502	4.6904	5.0734	5.4981	5.9631	6.4665	7.0061	7.5794	8.1836	8.8158	9.4729	10.1518	10.8497	11.5637	12.2910	13.0293	13.7762	14.5297	15.2880	16.0494	
3792	4.0562	4.3522	4.6919	5.0746	5.4990	5.9637	6.4669	7.0063	7.5795	8.1836	8.8157	9.4728	10.1517	10.8496	11.5635	12.2909	13.0292	13.7761	14.5297	15.2880	16.0494	
3794	4.0587	4.3542	4.6935	5.0757	5.4998	5.9643	6.4673	7.0066	7.5796	8.1836	8.8156	9.4726	10.1515	10.8494	11.5633	12.2907	13.0290	13.7760	14.5296	15.2879	16.0494	
3796	4.0613	4.3562	4.6950	5.0769	5.5007	5.9649	6.4677	7.0068	7.5797	8.1836	8.8155	9.4725	10.1513	10.8492	11.5632	12.2905	13.0289	13.7759	14.5295	15.2878	16.0493	
3798	4.0638	4.3581	4.6964	5.0780	5.5015	5.9654	6.4680	7.0070	7.5797	8.1835	8.8154	9.4723	10.1511	10.8490	11.5629	12.2903	13.0287	13.7757	14.5293	15.2877	16.0493	
3800	4.0662	4.3600	4.6979	5.0790	5.5022	5.9660	6.4683	7.0071	7.5798	8.1835	8.8153	9.4721	10.1509	10.8488	11.5627	12.2901	13.0285	13.7755	14.5292	15.2876	16.0492	
3802	4.0670	4.3603	4.6980	5.0789	5.5020	5.9656	6.4679	7.0066	7.5793	8.1830	8.8148	9.4717	10.1506	10.8485	11.5625	12.2900	13.0284	13.7756	14.5293	15.2878	16.0494	
3804	4.0676	4.3606	4.6980	5.0787	5.5016	5.9651	6.4674	7.0061	7.5787	8.1825	8.8143	9.4712	10.1502	10.8481	11.5623	12.2898	13.0284	13.7756	14.5294	15.2880	16.0497	
3806	4.0682	4.3609	4.6980	5.0785	5.5013	5.9647	6.4669	7.0055	7.5782	8.1819	8.8138	9.4708	10.1498	10.8478	11.5620	12.2897	13.0283	13.7756	14.5295	15.2881	16.0499	
3808	4.0687	4.3611	4.6979	5.0783	5.5009	5.9642	6.4663	7.0049	7.5776	8.1813	8.8133	9.4703	10.1494	10.8475	11.5617	12.2895	13.0282	13.7756	14.5295	15.2883	16.0501	
3810	4.0692	4.3612	4.6978	5.0780	5.5005	5.9637	6.4657	7.0043	7.5769	8.1807	8.8127	9.4698	10.1489	10.8471	11.5615	12.2893	13.0281	13.7755	14.5296	15.2884	16.0503	
3812	4.0696	4.3613	4.6977	5.0777	5.5000	5.9631	6.4651	7.0037	7.5763	8.1801	8.8121	9.4692	10.1485	10.8467	11.5612	12.2891	13.0279	13.7755	14.5296	15.2885	16.0505	
3814	4.0700	4.3614	4.6975	5.0773	5.4995	5.9626	6.4645	7.0030	7.5756	8.1795	8.8115	9.4687	10.1480	10.8463	11.5608	12.2888	13.0278	13.7754	14.5296	15.2886	16.0507	
3816	4.0704	4.3614	4.6973	5.0770	5.4990	5.9620	6.4638	7.0024	7.5750	8.1788	8.8109	9.4682	10.1475	10.8459	11.5605	12.2886	13.0277	13.7754	14.5297	15.2887	16.0509	
3818	4.0707	4.3614	4.6971	5.0766	5.4985	5.9614	6.4632	7.0017	7.5743	8.1782	8.8103	9.4676	10.1470	10.8455	11.5602	12.2884	13.0275	13.7753	14.5297	15.2889	16.0511	
3820	4.0709	4.3614	4.6968	5.0761	5.4980	5.9607	6.4625	7.0010	7.5736	8.1775	8.8096	9.4670	10.1465	10.8451	11.5599	12.2881	13.0274	13.7753	14.5298	15.2890	16.0513	
3822	4.0711	4.3613	4.6965	5.0757	5.4974	5.9600	6.4618	7.0002	7.5728	8.1768	8.8090	9.4664	10.1460	10.8446	11.5595	12.2879	13.0272	13.7752	14.5298	15.2891	16.0514	
3824	4.0713	4.3612	4.6962	5.0752	5.4968	5.9594	6.4610	6.9995	7.5721	8.1760	8.8083	9.4658	10.1454	10.8442	11.5591	12.2876	13.0270	13.7751	14.5298	15.2892	16.0516	
3826	4.0714	4.3610	4.6958	5.0746	5.4961	5.9586	6.4603	6.9987	7.5713	8.1753	8.8076	9.4652	10.1449	10.8437	11.5588	12.2873	13.0268	13.7750	14.5298	15.2892	16.0517	
3828	4.0715	4.3609	4.6954	5.0741	5.4954	5.9579	6.4595	6.9979	7.5705	8.1745	8.8069	9.4645	10.1443	10.8432	11.5584	12.2870	13.0266	13.7749	14.5297	15.2893	16.0519	
3830	4.0718	4.3610	4.6955	5.0740	5.4954	5.9578	6.4595	6.9979	7.5706	8.1747	8.8072	9.4649	10.1448	10.8438	11.5590	12.2877	13.0274	13.7758	14.5307	15.2903	16.0530	
3832	4.0722	4.3613	4.6957	5.0743	5.4956	5.9581	6.4598	6.9984	7.5712	8.1753	8.8079	9.4657	10.1457	10.8448	11.5602	12.2890	13.0287	13.7772	14.5321	15.2918	16.0545	
3834	4.0726	4.3615	4.6959	5.0744	5.4958	5.9584	6.4601	6.9988	7.5717	8.1760	8.8086	9.4666	10.1466	10.8459	11.5613	12.2902	13.0300	13.7785	14.5336	15.2933	16.0561	
3836	4.0729	4.3617	4.6960	5.0746	5.4960	5.9586	6.4605	6.9992	7.5722	8.1766	8.8093	9.4674	10.1476	10.8469	11.5624	12.2914	13.0313	13.7799	14.5350	15.2948	16.0576	
3838	4.0731	4.3619	4.6962	5.0747	5.4962	5.9589	6.4608	6.9996	7.5726	8.1771	8.8100	9.4682	10.1485	10.8479	11.5635	12.2926	13.0326	13.7813	14.5364	15.2963	16.0591	
3840	4.0734	4.3620	4.6963	5.0748	5.4963	5.9591	6.4610	6.9999	7.5731	8.1777	8.8107	9.4689	10.1494	10.8489	11.5646	12.2938	13.0339	13.7826	14.5378	15.2977	16.0606	
3842	4.0735	4.3621	4.6963	5.0749	5.4964	5.9592	6.4613	7.0003	7.5736	8.1783	8.8114	9.4697	10.1502	10.8498	11.5657	12.2949	13.0351	13.7839	14.5392	15.2992	16.0621	
3844	4.0738	4.3623	4.6965	5.0750	5.4966	5.9594	6.4616	7.0006	7.5740	8.1788	8.8120	9.4705	10.1511	10.8508	11.5667	12.2961	13.0363	13.7852	14.5406	15.3006	16.0636	
3846	4.0740	4.3625	4.6966	5.0752	5.4968	5.9597	6.4619	7.0010	7.5745	8.1794	8.8127	9.4712	10.1519	10.8518	11.5678	12.2972	13.0376	13.7865	14.5419	15.3020	16.0650	
3848	4.0743	4.3626	4.6967	5.0753	5.4969	5.9599	6.4621	7.0014	7.5749	8.1799	8.8133	9.4720	10.1528	10.8527	11.5688	12.2983	13.0388	13.7878	14.5433	15.3034	16.0665	
3850	4.0744	4.3627	4.6968	5.0754	5.4971	5.9601	6.4624	7.0017	7.5754	8.1805	8.8140	9.4727	10.1536	10.8536	11.5698	12.2994	13.0400	13.7890	14.5446	15.3048	16.0679	
3852	4.0746	4.3628	4.6969	5.0755	5.4972	5.9603	6.4627	7.0020	7.5758	8.1810	8.8146	9.4734	10.1544	10.8546	11.5708	12.3005	13.0411	13.7903	14.5459	15.3061	16.0693	
3854	4.0747	4.3629	4.6970	5.0756	5.4973	5.9604	6.4629	7.0023	7.5762	8.1815	8.8152	9.4741	10.1552	10.8555	11.5718	12.3016	13.0423	13.7915	14.5472	15.3075	16.0707	
3856	4.0748	4.3629	4.6970	5.0756	5.4974	5.9605	6.4631	7.0026	7.5766	8.1819	8.8157	9.4748	10.1560	10.8563	11.5728	12.3027	13.0434	13.7927	14.5485	15.3088	16.0721	
3858	4.0752	4.3632	4.6973	5.0759	5.4977	5.9609	6.4635	7.0031	7.5771	8.1826	8.8165	9.4756	10.1569	10.8573	11.5738	12.3038	13.0446	13.7939	14.5497	15.3101	16.0734	
3860	4.0769	4.3648	4.6988	5.0774	5.4991	5.9623	6.4648	7.0044	7.5784	8.1838	8.8177	9.4768	10.1581	10.8584	11.5750	12.3049	13.0457	13.7950	14.5508	15.3112	16.0745	
3862	4.0785	4.3664	4.7003	5.0788	5.5005	5.9636	6.4662	7.0057	7.5796	8.1851	8.8189	9.4780	10.1592	10.8596	11.5761	12.3060	13.0468	13.7961	14.5519	15.3123	16.0756	
3864	4.0801	4.3679	4.7017	5.0802	5.5019	5.9649	6.4674	7.0070	7.5809	8.1863	8.8201	9.4791	10.1604	10.8607	11.5772	12.3071	13.0479	13.7972	14.5530	15.3134	16.0766	
3866	4.0818	4.3694	4.7031	5.0816	5.5032	5.9663	6.4687	7.0082	7.5821	8.1875	8.8212	9.4803	10.1615	10.8618	11.5783	12.3082	13.0490	13.7983	14.5541	15.3144	16.0777	
3868	4.0833	4.3709	4.7046	5.0829	5.5045	5.9675	6.4700	7.0094	7.5833	8.1886	8.8224	9.4814	10.1626	10.8629	11.5794	12.3092	13.0500	13.7993	14.5551	15.3155	16.0787	
3870	4.0849	4.3723	4.7059	5.0843	5.5058	5.9688	6.4712	7.0107	7.5845	8.1898	8.8235	9.4825	10.1637	10.8640	11.5804	12.3103	13.0510	13.8004	14.5561	15.3165	16.0798	
3872	4.0864	4.3737	4.7073	5.0856	5.5071	5.9700	6.4724	7.0118	7.5856	8.1909	8.8246	9.4836	10.1648	10.8650	11.5814	12.3113	13.0521	13.8014	14.5571	15.3175	16.0808	
3874	4.0878	4.3751	4.7086	5.0869	5.5083	5.9713	6.4736	7.0130	7.5868	8.1920	8.8257	9.4847	10.1658	10.8660	11.5825	12.3123	13.0531	13.8024	14.5581	15.3185	16.0818	
3876	4.0893	4.3765	4.7099	5.0881	5.5095	5.9724	6.4748	7.0141	7.5879	8.1931	8.8268	9.4857	10.1668	10.8671	11.5835	12.3133	13.0541	13.8034	14.5591	15.3195	16.0827	
3878	4.0907	4.3778	4.7112	5.0893	5.5107	5.9736	6.4759	7.0153	7.5890	8.1942	8.8278	9.4868	10.1679	10.8681	11.5845	12.3143	13.0550	13.8043	14.5601	15.3204	16.0837	
3880	4.0921	4.3791	4.7124	5.0906	5.5119	5.9748	6.4771	7.0164	7.5901	8.1953	8.8289	9.4878	10.1688	10.8690	11.5854	12.3152	13.0560	13.8053	14.5610	15.3214	16.0846	
3882	4.0934	4.3804	4.7137	5.0917	5.5131	5.9759	6.4782	7.0175	7.5911	8.1963	8.8299	9.4888	10.1698	10.8700	11.5864	12.3162	13.0569	13.8062	14.5620	15.3223	16.0856	
3884	4.0947	4.3816	4.7149	5.0929	5.5142	5.9770	6.4792	7.0185	7.5922	8.1973	8.8309	9.4897	10.1708	10.8709	11.5873	12.3171	13.0578	13.8071	14.5629	15.3232	16.0865	
3886	4.0960	4.3829	4.7160	5.0940	5.5153	5.9781	6.4803	7.0196	7.5932	8.1983	8.8319	9.4907	10.1717	10.8719	11.5882	12.3180	13.0587	13.8080	14.5638	15.3241	16.0874	
3888	4.0973	4.3841	4.7172	5.0952	5.5164	5.9792	6.4814	7.0206	7.5942	8.1993	8.8329	9.4917	10.1727	10.8729	11.5892	12.3190	13.0597	13.8090	14.5647	15.3251	16.0883	
3890	4.0985	4.3852	4.7183	5.0963	5.5175	5.9803	6.4825	7.0217	7.5953	8.2004	8.8339	9.4927	10.1737	10.8739	11.5902	12.3200	13.0607	13.8100	14.5657	15.3261	16.0893	
3892	4.0997	4.3864	4.7194	5.0974	5.5186	5.9814	6.4835	7.0228	7.5964	8.2014	8.8349	9.4938	10.1748	10.8749	11.5912	12.3210	13.0617	13.8110	14.5667	15.3270	16.0903	
3894	4.1009	4.3875	4.7205	5.0985	5.5197	5.9824	6.4846	7.0238	7.5974	8.2024	8.8360	9.4948	10.1757	10.8759	11.5922	12.3220	13.0627	13.8119	14.5677	15.3280	16.0912	
3896	4.1020	4.3886	4.7216	5.0995	5.5207	5.9834	6.4856	7.0248	7.5984	8.2034	8.8369	9.4957	10.1767	10.8768	11.5931	12.3229	13.0636	13.8129	14.5686	15.3289	16.0922	
3898	4.1032	4.3897	4.7226	5.1005	5.5217	5.9844	6.4866	7.0258	7.5994	8.2044	8.8379	9.4967	10.1777	10.8778	11.5941	12.3239	13.0645	13.8138	14.5695	15.3299	16.0931	
3900	4.1042	4.3907	4.7237	5.1015	5.5227	5.9854	6.4876	7.0268	7.6003	8.2054	8.8389	9.4976	10.1786	10.8787	11.5950	12.3248	13.0655	13.8147	14.5705	15.3308	16.0940	
3902	4.1053	4.3917	4.7246	5.1025	5.5237	5.9864	6.4885	7.0277	7.6012	8.2063	8.8398	9.4985	10.1795	10.8796	11.5959	12.3257	13.0664	13.8156	14.5714	15.3317	16.0949	
3904	4.1062	4.3925	4.7254	5.1032	5.5244	5.9871	6.4892	7.0284	7.6020	8.2070	8.8405	9.4993	10.1803	10.8804	11.5968	12.3265	13.0673	13.8165	14.5723	15.3326	16.0959	
3906	4.1070	4.3933	4.7262	5.1040	5.5251	5.9878	6.4899	7.0291	7.6027	8.2077	8.8412	9.5001	10.1811	10.8812	11.5976	12.3274	13.0681	13.8174	14.5732	15.3336	16.0968	
3908	4.1078	4.3941	4.7269	5.1047	5.5258	5.9885	6.4906	7.0298	7.6033	8.2084	8.8420	9.5008	10.1818	10.8820	11.5984	12.3282	13.0690	13.8183	14.5741	15.3345	16.0977	
3910	4.1086	4.3948	4.7276	5.1053	5.5264	5.9891	6.4912	7.0304	7.6040	8.2091	8.8427	9.5015	10.1826	10.8828	11.5992	12.3290	13.0698	13.8192	14.5750	15.3354	16.0987	
3912	4.1094	4.3955	4.7283	5.1060	5.5271	5.9897	6.4919	7.0311	7.6047	8.2098	8.8433	9.5022	10.1833	10.8835	11.6000	12.3298	13.0706	13.8200	14.5759	15.3363	16.0996	
3914	4.1101	4.3962	4.7289	5.1066	5.5277	5.9904	6.4925	7.0317	7.6053	8.2104	8.8440	9.5029	10.1840	10.8843	11.6007	12.3306	13.0715	13.8209	14.5767	15.3371	16.1004	
3916	4.1108	4.3969	4.7296	5.1072	5.5283	5.9910	6.4931	7.0323	7.6059	8.2110	8.8446	9.5036	10.1847	10.8850	11.6015	12.3314	13.0723	13.8217	14.5775	15.3380	16.1013	
3918	4.1115	4.3975	4.7302	5.1078	5.5289	5.9915	6.4936	7.0329	7.6065	8.2116	8.8453	9.5042	10.1854	10.8857	11.6022	12.3322	13.0730	13.8225	14.5784	15.3388	16.1022	
3920	4.1122	4.3981	4.7308	5.1084	5.5295	5.9921	6.4942	7.0334	7.6071	8.2122	8.8459	9.5048	10.1860	10.8864	11.6029	12.3329	13.0738	13.8233	14.5792	15.3396	16.1030	
3922	4.1128	4.3987	4.7313	5.1089	5.5300	5.9926	6.4947	7.0340	7.6076	8.2128	8.8465	9.5055	10.1867	10.8870	11.6036	12.3336	13.0745	13.8240	14.5800	15.3404	16.1038	
3924	4.1134	4.3993	4.7318	5.1095	5.5305	5.9931	6.4953	7.0345	7.6082	8.2134	8.8470	9.5061	10.1873	10.8877	11.6043	12.3343	13.0753	13.8248	14.5807	15.3412	16.1046	
3926	4.1139	4.3998	4.7324	5.1100	5.5310	5.9936	6.4958	7.0350	7.6087	8.2139	8.8476	9.5066	10.1879	10.8883	11.6049	12.3350	13.0760	13.8255	14.5815	15.3420	16.1054	
3928	4.1144	4.4003	4.7328	5.1104	5.5315	5.9941	6.4962	7.0355	7.6092	8.2144	8.8481	9.5072	10.1885	10.8889	11.6056	12.3357	13.0767	13.8263	14.5822	15.3428	16.1062	
3930	4.1149	4.4008	4.7333	5.1109	5.5319	5.9945	6.4967	7.0360	7.6097	8.2149	8.8487	9.5078	10.1891	10.8895	11.6062	12.3363	13.0774	13.8270	14.5830	15.3435	16.1070	
3932	4.1154	4.4012	4.7337	5.1113	5.5324	5.9950	6.4971	7.0364	7.6101	8.2154	8.8492	9.5083	10.1896	10.8901	11.6068	12.3370	13.0780	13.8277	14.5837	15.3443	16.1077	
3934	4.1158	4.4016	4.7341	5.1117	5.5328	5.9954	6.4976	7.0368	7.6106	8.2159	8.8497	9.5088	10.1902	10.8907	11.6074	12.3376	13.0787	13.8283	14.5844	15.3450	16.1084	
3936	4.1162	4.4020	4.7345	5.1121	5.5331	5.9958	6.4980	7.0373	7.6110	8.2163	8.8501	9.5093	10.1907	10.8912	11.6080	12.3382	13.0793	13.8290	14.5851	15.3457	16.1092	
3938	4.1166	4.4024	4.7349	5.1125	5.5335	5.9962	6.4983	7.0377	7.6114	8.2168	8.8506	9.5098	10.1912	10.8918	11.6086	12.3388	13.0800	13.8297	14.5858	15.3464	16.1099	
3940	4.1169	4.4027	4.7352	5.1128	5.5339	5.9965	6.4987	7.0380	7.6118	8.2172	8.8510	9.5103	10.1917	10.8923	11.6091	12.3394	13.0806	13.8303	14.5864	15.3471	16.1106	
3942	4.1173	4.4030	4.7356	5.1131	5.5342	5.9969	6.4990	7.0384	7.6122	8.2176	8.8515	9.5107	10.1922	10.8928	11.6097	12.3400	13.0812	13.8309	14.5871	15.3477	16.1112	
3944	4.1175	4.4033	4.7358	5.1134	5.5345	5.9972	6.4994	7.0387	7.6126	8.2180	8.8519	9.5111	10.1926	10.8933	11.6102	12.3405	13.0817	13.8315	14.5877	15.3484	16.1119	
3946	4.1178	4.4036	4.7361	5.1137	5.5348	5.9975	6.4997	7.0391	7.6129	8.2183	8.8523	9.5116	10.1931	10.8938	11.6107	12.3411	13.0823	13.8321	14.5883	15.3490	16.1126	
3948	4.1180	4.4038	4.7364	5.1140	5.5350	5.9977	6.5000	7.0394	7.6132	8.2187	8.8526	9.5120	10.1935	10.8942	11.6112	12.3416	13.0829	13.8327	14.5889	15.3496	16.1132	
3950	4.1182	4.4040	4.7366	5.1142	5.5353	5.9980	6.5002	7.0397	7.6135	8.2190	8.8530	9.5123	10.1939	10.8947	11.6117	12.3421	13.0834	13.8332	14.5895	15.3502	16.1138	
3952	4.1184	4.4042	4.7368	5.1144	5.5355	5.9982	6.5005	7.0399	7.6138	8.2193	8.8533	9.5127	10.1943	10.8951	11.6121	12.3426	13.0839	13.8338	14.5901	15.3508	16.1144	
3954	4.1185	4.4044	4.7369	5.1146	5.5357	5.9984	6.5007	7.0402	7.6141	8.2196	8.8536	9.5131	10.1947	10.8955	11.6126	12.3430	13.0844	13.8343	14.5906	15.3514	16.1150	
3956	4.1186	4.4045	4.7371	5.1148	5.5359	5.9986	6.5009	7.0404	7.6144	8.2199	8.8540	9.5134	10.1951	10.8959	11.6130	12.3435	13.0849	13.8348	14.5912	15.3520	16.1156	
3958	4.1187	4.4046	4.7372	5.1149	5.5360	5.9988	6.5011	7.0406	7.6146	8.2202	8.8542	9.5137	10.1954	10.8963	11.6134	12.3440	13.0854	13.8353	14.5917	15.3525	16.1162	
3960	4.1187	4.4047	4.7373	5.1150	5.5362	5.9990	6.5013	7.0408	7.6148	8.2204	8.8545	9.5140	10.1958	10.8967	11.6138	12.3444	13.0858	13.8358	14.5922	15.3531	16.1167	
3962	4.1188	4.4047	4.7374	5.1151	5.5363	5.9991	6.5015	7.0410	7.6150	8.2206	8.8548	9.5143	10.1961	10.8970	11.6142	12.3448	13.0863	13.8363	14.5927	15.3536	16.1173	
3964	4.1188	4.4048	4.7374	5.1152	5.5364	5.9992	6.5016	7.0412	7.6152	8.2208	8.8550	9.5146	10.1964	10.8973	11.6145	12.3452	13.0867	13.8367	14.5932	15.3541	16.1178	
3966	4.1187	4.4047	4.7375	5.1153	5.5365	5.9993	6.5017	7.0413	7.6154	8.2210	8.8552	9.5148	10.1966	10.8976	11.6149	12.3455	13.0871	13.8372	14.5936	15.3545	16.1183	
3968	4.1187	4.4047	4.7375	5.1153	5.5365	5.9994	6.5018	7.0414	7.6155	8.2212	8.8554	9.5150	10.1969	10.8979	11.6152	12.3459	13.0875	13.8376	14.5940	15.3550	16.1187	
3970	4.1186	4.4047	4.7375	5.1153	5.5366	5.9995	6.5019	7.0415	7.6156	8.2214	8.8556	9.5153	10.1971	10.8982	11.6155	12.3462	13.0878	13.8380	14.5945	15.3554	16.1192	
3972	4.1184	4.4046	4.7374	5.1153	5.5366	5.9995	6.5020	7.0416	7.6158	8.2215	8.8558	9.5154	10.1974	10.8985	11.6158	12.3466	13.0882	13.8383	14.5949	15.3559	16.1196	
3974	4.1183	4.4045	4.7374	5.1153	5.5366	5.9995	6.5020	7.0417	7.6159	8.2216	8.8559	9.5156	10.1976	10.8987	11.6161	12.3469	13.0885	13.8387	14.5953	15.3563	16.1201	
3976	4.1181	4.4044	4.7373	5.1152	5.5366	5.9995	6.5021	7.0417	7.6159	8.2217	8.8561	9.5158	10.1978	10.8989	11.6163	12.3472	13.0889	13.8391	14.5956	15.3567	16.1205	
3978	4.1179	4.4042	4.7372	5.1151	5.5365	5.9995	6.5021	7.0418	7.6160	8.2218	8.8562	9.5159	10.1980	10.8992	11.6166	12.3474	13.0892	13.8394	14.5960	15.3571	16.1209	
3980	4.1177	4.4040	4.7370	5.1150	5.5364	5.9995	6.5021	7.0418	7.6160	8.2219	8.8563	9.5161	10.1981	10.8994	11.6168	12.3477	13.0895	13.8397	14.5964	15.3575	16.1213	
3982	4.1174	4.4038	4.7369	5.1149	5.5364	5.9994	6.5020	7.0418	7.6161	8.2219	8.8564	9.5162	10.1983	10.8995	11.6170	12.3480	13.0897	13.8400	14.5967	15.3578	16.1217	
3984	4.1171	4.4036	4.7367	5.1148	5.5363	5.9994	6.5020	7.0418	7.6161	8.2220	8.8564	9.5163	10.1984	10.8997	11.6172	12.3482	13.0900	13.8403	14.5970	15.3582	16.1221	
3986	4.1168	4.4033	4.7365	5.1146	5.5361	5.9993	6.5019	7.0417	7.6161	8.2220	8.8565	9.5164	10.1985	10.8999	11.6174	12.3484	13.0903	13.8406	14.5973	15.3585	16.1224	
3988	4.1164	4.4031	4.7363	5.1144	5.5360	5.9992	6.5018	7.0417	7.6161	8.2220	8.8565	9.5165	10.1986	10.9000	11.6176	12.3486	13.0905	13.8409	14.5976	15.3588	16.1228	
3990	4.1160	4.4028	4.7360	5.1142	5.5358	5.9990	6.5017	7.0416	7.6160	8.2220	8.8566	9.5165	10.1987	10.9001	11.6177	12.3488	13.0907	13.8411	14.5979	15.3591	16.1231	
3992	4.1156	4.4024	4.7358	5.1140	5.5357	5.9989	6.5016	7.0415	7.6160	8.2220	8.8566	9.5166	10.1988	10.9002	11.6179	12.3490	13.0909	13.8414	14.5982	15.3594	16.1234	
3994	4.1152	4.4021	4.7355	5.1138	5.5355	5.9987	6.5015	7.0414	7.6159	8.2220	8.8566	9.5166	10.1989	10.9003	11.6180	12.3492	13.0911	13.8416	14.5984	15.3597	16.1237	
3996	4.1147	4.4017	4.7351	5.1135	5.5352	5.9985	6.5013	7.0413	7.6158	8.2219	8.8565	9.5166	10.1989	10.9004	11.6181	12.3493	13.0913	13.8418	14.5987	15.3600	16.1240	
3998	4.1143	4.4013	4.7348	5.1132	5.5350	5.9983	6.5012	7.0412	7.6157	8.2218	8.8565	9.5166	10.1989	10.9005	11.6182	12.3494	13.0915	13.8420	14.5989	15.3602	16.1243	
4000	4.1137	4.4009	4.7345	5.1129	5.5347	5.9981	6.5010	7.0410	7.6156	8.2217	8.8565	9.5166	10.1990	10.9005	11.6183	12.3496	13.0916	13.8422	14.5991	15.3605	16.1245	
4002	4.1132	4.4004	4.7341	5.1126	5.5345	5.9979	6.5008	7.0409	7.6154	8.2216	8.8564	9.5165	10.1990	10.9006	11.6184	12.3497	13.0918	13.8424	14.5993	15.3607	16.1248	
4004	4.1126	4.3999	4.7337	5.1123	5.5342	5.9976	6.5006	7.0407	7.6153	8.2215	8.8563	9.5165	10.1989	10.9006	11.6185	12.3498	13.0919	13.8425	14.5995	15.3609	16.1250	
4006	4.1120	4.3995	4.7332	5.1119	5.5338	5.9973	6.5003	7.0405	7.6151	8.2214	8.8562	9.5164	10.1989	10.9006	11.6185	12.3498	13.0920	13.8427	14.5997	15.3611	16.1252	
4008	4.1114	4.3989	4.7328	5.1115	5.5335	5.9970	6.5001	7.0403	7.6149	8.2212	8.8561	9.5163	10.1989	10.9006	11.6185	12.3499	13.0921	13.8428	14.5998	15.3613	16.1255	
4010	4.1108	4.3984	4.7323	5.1111	5.5332	5.9967	6.4998	7.0400	7.6147	8.2211	8.8560	9.5163	10.1988	10.9006	11.6185	12.3499	13.0922	13.8429	14.6000	15.3615	16.1257	
4012	4.1101	4.3978	4.7318	5.1107	5.5328	5.9964	6.4995	7.0398	7.6145	8.2209	8.8558	9.5161	10.1987	10.9005	11.6185	12.3500	13.0923	13.8430	14.6001	15.3616	16.1258	
4014	4.1094	4.3972	4.7313	5.1102	5.5324	5.9961	6.4992	7.0395	7.6143	8.2207	8.8556	9.5160	10.1987	10.9005	11.6185	12.3500	13.0923	13.8431	14.6002	15.3618	16.1260	
4016	4.1087	4.3966	4.7308	5.1098	5.5320	5.9957	6.4989	7.0392	7.6140	8.2205	8.8555	9.5159	10.1986	10.9004	11.6185	12.3500	13.0924	13.8432	14.6003	15.3619	16.1262	
4018	4.1079	4.3960	4.7303	5.1093	5.5316	5.9953	6.4986	7.0389	7.6138	8.2203	8.8553	9.5157	10.1984	10.9003	11.6185	12.3500	13.0924	13.8433	14.6004	15.3620	16.1263	
4020	4.1071	4.3953	4.7297	5.1088	5.5311	5.9949	6.4982	7.0386	7.6135	8.2200	8.8551	9.5156	10.1983	10.9002	11.6184	12.3500	13.0924	13.8433	14.6005	15.3621	16.1264	
4022	4.1063	4.3946	4.7291	5.1083	5.5306	5.9945	6.4978	7.0383	7.6132	8.2198	8.8549	9.5154	10.1982	10.9001	11.6183	12.3500	13.0924	13.8433	14.6006	15.3622	16.1266	
4024	4.1055	4.3939	4.7285	5.1077	5.5302	5.9941	6.4974	7.0379	7.6129	8.2195	8.8546	9.5152	10.1980	10.9000	11.6182	12.3499	13.0924	13.8434	14.6006	15.3623	16.1267	
4026	4.1046	4.3932	4.7278	5.1072	5.5297	5.9936	6.4970	7.0376	7.6126	8.2192	8.8544	9.5150	10.1978	10.8999	11.6181	12.3498	13.0924	13.8434	14.6007	15.3624	16.1268	
4028	4.1037	4.3924	4.7272	5.1066	5.5291	5.9931	6.4966	7.0372	7.6122	8.2189	8.8541	9.5147	10.1976	10.8997	11.6180	12.3498	13.0923	13.8434	14.6007	15.3624	16.1268	
4030	4.1028	4.3916	4.7265	5.1060	5.5286	5.9927	6.4962	7.0368	7.6119	8.2186	8.8538	9.5145	10.1974	10.8996	11.6179	12.3497	13.0923	13.8434	14.6007	15.3625	16.1269	
4032	4.1019	4.3908	4.7258	5.1053	5.5280	5.9922	6.4957	7.0364	7.6115	8.2182	8.8535	9.5142	10.1972	10.8994	11.6178	12.3496	13.0922	13.8433	14.6007	15.3625	16.1270	
4034	4.1009	4.3900	4.7251	5.1047	5.5275	5.9916	6.4952	7.0359	7.6111	8.2179	8.8532	9.5140	10.1970	10.8992	11.6176	12.3495	13.0921	13.8433	14.6007	15.3625	16.1270	
4036	4.0999	4.3892	4.7243	5.1040	5.5269	5.9911	6.4947	7.0355	7.6107	8.2175	8.8529	9.5137	10.1967	10.8990	11.6174	12.3493	13.0921	13.8432	14.6007	15.3625	16.1270	
4038	4.0989	4.3883	4.7236	5.1034	5.5263	5.9905	6.4942	7.0350	7.6103	8.2171	8.8526	9.5134	10.1965	10.8988	11.6173	12.3492	13.0919	13.8431	14.6006	15.3625	16.1271	
4040	4.0979	4.3874	4.7228	5.1027	5.5256	5.9900	6.4937	7.0346	7.6099	8.2168	8.8522	9.5131	10.1962	10.8985	11.6171	12.3490	13.0918	13.8431	14.6006	15.3625	16.1271	
4042	4.0968	4.3865	4.7220	5.1019	5.5250	5.9894	6.4932	7.0341	7.6094	8.2163	8.8518	9.5127	10.1959	10.8983	11.6169	12.3489	13.0917	13.8430	14.6005	15.3625	16.1271	
4044	4.0957	4.3855	4.7211	5.1012	5.5243	5.9888	6.4926	7.0336	7.6089	8.2159	8.8515	9.5124	10.1956	10.8980	11.6166	12.3487	13.0916	13.8429	14.6005	15.3624	16.1271	
4046	4.0946	4.3846	4.7203	5.1005	5.5236	5.9882	6.4921	7.0330	7.6085	8.2155	8.8511	9.5120	10.1953	10.8977	11.6164	12.3485	13.0914	13.8427	14.6004	15.3624	16.1270	
4048	4.0935	4.3836	4.7194	5.0997	5.5229	5.9875	6.4915	7.0325	7.6080	8.2150	8.8506	9.5117	10.1950	10.8975	11.6162	12.3483	13.0912	13.8426	14.6003	15.3623	16.1270	
4050	4.0923	4.3826	4.7185	5.0989	5.5222	5.9869	6.4909	7.0319	7.6075	8.2146	8.8502	9.5113	10.1946	10.8972	11.6159	12.3481	13.0910	13.8425	14.6002	15.3622	16.1269	
4052	4.0912	4.3816	4.7176	5.0981	5.5215	5.9862	6.4902	7.0314	7.6069	8.2141	8.8498	9.5109	10.1943	10.8968	11.6156	12.3478	13.0908	13.8423	14.6000	15.3621	16.1269	
4054	4.0899	4.3805	4.7167	5.0972	5.5207	5.9855	6.4896	7.0308	7.6064	8.2136	8.8493	9.5105	10.1939	10.8965	11.6153	12.3476	13.0906	13.8421	14.5999	15.3620	16.1268	
4056	4.0887	4.3794	4.7158	5.0964	5.5200	5.9848	6.4890	7.0302	7.6058	8.2131	8.8489	9.5101	10.1935	10.8962	11.6150	12.3473	13.0904	13.8419	14.5997	15.3619	16.1267	
4058	4.0875	4.3784	4.7148	5.0955	5.5192	5.9841	6.4883	7.0296	7.6053	8.2126	8.8484	9.5096	10.1931	10.8958	11.6147	12.3470	13.0902	13.8417	14.5996	15.3618	16.1266	
4060	4.0862	4.3772	4.7138	5.0946	5.5184	5.9833	6.4876	7.0289	7.6047	8.2120	8.8479	9.5092	10.1927	10.8954	11.6144	12.3468	13.0899	13.8415	14.5994	15.3616	16.1265	
4062	4.0849	4.3761	4.7128	5.0937	5.5175	5.9826	6.4869	7.0283	7.6041	8.2115	8.8474	9.5087	10.1923	10.8951	11.6141	12.3465	13.0897	13.8413	14.5992	15.3615	16.1263	
4064	4.0835	4.3750	4.7118	5.0928	5.5167	5.9818	6.4862	7.0276	7.6035	8.2109	8.8469	9.5082	10.1919	10.8947	11.6137	12.3461	13.0894	13.8411	14.5990	15.3613	16.1262	
4066	4.0822	4.3738	4.7107	5.0919	5.5158	5.9810	6.4855	7.0270	7.6029	8.2103	8.8463	9.5077	10.1914	10.8943	11.6133	12.3458	13.0891	13.8408	14.5988	15.3611	16.1260	
4068	4.0808	4.3726	4.7097	5.0909	5.5150	5.9802	6.4847	7.0263	7.6022	8.2097	8.8458	9.5072	10.1909	10.8938	11.6129	12.3455	13.0888	13.8406	14.5986	15.3609	16.1259	
4070	4.0794	4.3714	4.7086	5.0900	5.5141	5.9794	6.4840	7.0256	7.6016	8.2091	8.8452	9.5067	10.1905	10.8934	11.6126	12.3451	13.0885	13.8403	14.5983	15.3607	16.1257	
4072	4.0780	4.3701	4.7075	5.0890	5.5132	5.9786	6.4832	7.0248	7.6009	8.2085	8.8446	9.5062	10.1900	10.8930	11.6121	12.3448	13.0882	13.8400	14.5981	15.3605	16.1255	
4074	4.0766	4.3689	4.7064	5.0879	5.5122	5.9777	6.4824	7.0241	7.6002	8.2078	8.8440	9.5056	10.1895	10.8925	11.6117	12.3444	13.0878	13.8397	14.5978	15.3603	16.1253	
4076	4.0751	4.3676	4.7052	5.0869	5.5113	5.9768	6.4816	7.0234	7.5995	8.2072	8.8434	9.5050	10.1889	10.8920	11.6113	12.3440	13.0875	13.8394	14.5975	15.3600	16.1251	
4078	4.0736	4.3663	4.7041	5.0859	5.5104	5.9760	6.4808	7.0226	7.5988	8.2065	8.8428	9.5045	10.1884	10.8915	11.6109	12.3436	13.0871	13.8391	14.5973	15.3598	16.1249	
4080	4.0721	4.3650	4.7029	5.0848	5.5094	5.9751	6.4800	7.0218	7.5981	8.2058	8.8422	9.5039	10.1879	10.8910	11.6104	12.3432	13.0867	13.8387	14.5970	15.3595	16.1247	
4082	4.0706	4.3636	4.7017	5.0837	5.5084	5.9741	6.4791	7.0210	7.5973	8.2052	8.8415	9.5033	10.1873	10.8905	11.6099	12.3427	13.0864	13.8384	14.5966	15.3592	16.1244	
4084	4.0690	4.3623	4.7005	5.0826	5.5074	5.9732	6.4782	7.0202	7.5966	8.2044	8.8409	9.5027	10.1867	10.8900	11.6094	12.3423	13.0860	13.8380	14.5963	15.3589	16.1242	
4086	4.0674	4.3609	4.6993	5.0815	5.5064	5.9723	6.4774	7.0194	7.5958	8.2037	8.8402	9.5020	10.1862	10.8895	11.6089	12.3419	13.0855	13.8376	14.5960	15.3586	16.1239	
4088	4.0658	4.3595	4.6980	5.0804	5.5053	5.9713	6.4765	7.0186	7.5950	8.2030	8.8395	9.5014	10.1856	10.8889	11.6084	12.3414	13.0851	13.8373	14.5956	15.3583	16.1236	
4090	4.0642	4.3581	4.6968	5.0792	5.5043	5.9703	6.4756	7.0177	7.5942	8.2022	8.8388	9.5007	10.1850	10.8883	11.6079	12.3409	13.0847	13.8369	14.5953	15.3580	16.1233	
4092	4.0626	4.3566	4.6955	5.0781	5.5032	5.9693	6.4746	7.0168	7.5934	8.2015	8.8381	9.5001	10.1843	10.8878	11.6074	12.3404	13.0842	13.8365	14.5949	15.3577	16.1230	
4094	4.0609	4.3552	4.6942	5.0769	5.5021	5.9683	6.4737	7.0160	7.5926	8.2007	8.8374	9.4994	10.1837	10.8872	11.6068	12.3399	13.0838	13.8360	14.5945	15.3573	16.1227	
4096	4.0592	4.3537	4.6928	5.0757	5.5010	5.9673	6.4727	7.0151	7.5917	8.1999	8.8366	9.4987	10.1831	10.8866	11.6063	12.3394	13.0833	13.8356	14.5941	15.3570	16.1224	
4098	4.0575	4.3522	4.6915	5.0745	5.4999	5.9663	6.4718	7.0142	7.5909	8.1991	8.8359	9.4980	10.1824	10.8860	11.6057	12.3389	13.0828	13.8352	14.5937	15.3566	16.1220	
4100	4.0558	4.3507	4.6901	5.0732	5.4988	5.9652	6.4708	7.0132	7.5900	8.1983	8.8351	9.4973	10.1817	10.8853	11.6051	12.3383	13.0823	13.8347	14.5933	15.3562	16.1217	
4102	4.0540	4.3491	4.6888	5.0720	5.4976	5.9642	6.4698	7.0123	7.5891	8.1975	8.8343	9.4965	10.1810	10.8847	11.6045	12.3378	13.0818	13.8342	14.5929	15.3558	16.1213	
4104	4.0523	4.3476	4.6874	5.0707	5.4964	5.9631	6.4688	7.0113	7.5882	8.1966	8.8335	9.4958	10.1803	10.8840	11.6039	12.3372	13.0813	13.8338	14.5924	15.3554	16.1209	
4106	4.0505	4.3460	4.6860	5.0694	5.4953	5.9620	6.4678	7.0104	7.5873	8.1958	8.8327	9.4950	10.1796	10.8834	11.6033	12.3367	13.0808	13.8333	14.5920	15.3550	16.1206	
4108	4.0486	4.3444	4.6845	5.0681	5.4941	5.9609	6.4667	7.0094	7.5864	8.1949	8.8319	9.4943	10.1789	10.8827	11.6027	12.3361	13.0802	13.8328	14.5915	15.3546	16.1202	
4110	4.0468	4.3428	4.6831	5.0668	5.4929	5.9597	6.4657	7.0084	7.5855	8.1940	8.8311	9.4935	10.1782	10.8820	11.6020	12.3355	13.0797	13.8323	14.5911	15.3541	16.1198	
4112	4.0450	4.3411	4.6816	5.0655	5.4916	5.9586	6.4646	7.0074	7.5845	8.1931	8.8302	9.4927	10.1774	10.8813	11.6014	12.3349	13.0791	13.8317	14.5906	15.3537	16.1194	
4114	4.0431	4.3395	4.6801	5.0641	5.4904	5.9574	6.4635	7.0064	7.5836	8.1922	8.8294	9.4919	10.1767	10.8806	11.6007	12.3342	13.0785	13.8312	14.5901	15.3532	16.1189	
4116	4.0412	4.3378	4.6786	5.0628	5.4891	5.9563	6.4624	7.0054	7.5826	8.1913	8.8285	9.4911	10.1759	10.8799	11.6000	12.3336	13.0779	13.8306	14.5896	15.3528	16.1185	
4118	4.0393	4.3361	4.6771	5.0614	5.4879	5.9551	6.4613	7.0043	7.5816	8.1904	8.8276	9.4902	10.1751	10.8791	11.5993	12.3330	13.0773	13.8301	14.5890	15.3523	16.1180	
4120	4.0373	4.3344	4.6756	5.0600	5.4866	5.9539	6.4602	7.0033	7.5806	8.1894	8.8267	9.4894	10.1743	10.8784	11.5986	12.3323	13.0767	13.8295	14.5885	15.3518	16.1176	
4122	4.0354	4.3327	4.6740	5.0586	5.4852	5.9526	6.4590	7.0021	7.5796	8.1884	8.8258	9.4885	10.1735	10.8776	11.5979	12.3316	13.0761	13.8289	14.5880	15.3513	16.1171	
4124	4.0334	4.3309	4.6724	5.0571	5.4839	5.9514	6.4578	7.0010	7.5785	8.1874	8.8248	9.4876	10.1726	10.8768	11.5972	12.3309	13.0754	13.8283	14.5874	15.3507	16.1166	
4126	4.0314	4.3291	4.6708	5.0556	5.4825	5.9501	6.4566	6.9999	7.5774	8.1864	8.8238	9.4867	10.1717	10.8760	11.5964	12.3302	13.0748	13.8277	14.5868	15.3502	16.1161	
4128	4.0293	4.3273	4.6692	5.0541	5.4811	5.9488	6.4554	6.9987	7.5763	8.1854	8.8229	9.4857	10.1709	10.8751	11.5956	12.3295	13.0741	13.8271	14.5862	15.3497	16.1156	
4130	4.0273	4.3255	4.6676	5.0526	5.4797	5.9475	6.4542	6.9976	7.5752	8.1843	8.8219	9.4848	10.1700	10.8743	11.5948	12.3287	13.0734	13.8264	14.5857	15.3491	16.1151	
4132	4.0252	4.3237	4.6659	5.0511	5.4783	5.9462	6.4529	6.9964	7.5741	8.1832	8.8209	9.4838	10.1691	10.8735	11.5940	12.3280	13.0727	13.8258	14.5850	15.3486	16.1146	
4134	4.0231	4.3218	4.6642	5.0496	5.4769	5.9448	6.4516	6.9952	7.5730	8.1822	8.8198	9.4829	10.1682	10.8726	11.5932	12.3272	13.0720	13.8251	14.5844	15.3480	16.1141	
4136	4.0210	4.3200	4.6625	5.0480	5.4755	5.9435	6.4504	6.9940	7.5718	8.1811	8.8188	9.4819	10.1672	10.8717	11.5924	12.3264	13.0713	13.8244	14.5838	15.3474	16.1135	
4138	4.0188	4.3180	4.6607	5.0463	5.4739	5.9420	6.4490	6.9927	7.5706	8.1800	8.8178	9.4809	10.1663	10.8709	11.5916	12.3258	13.0706	13.8239	14.5833	15.3469	16.1131	
4140	4.0165	4.3159	4.6588	5.0446	5.4723	5.9406	6.4476	6.9914	7.5694	8.1789	8.8167	9.4800	10.1655	10.8701	11.5909	12.3251	13.0700	13.8233	14.5828	15.3465	16.1127	
4142	4.0142	4.3138	4.6569	5.0429	5.4707	5.9391	6.4463	6.9901	7.5682	8.1777	8.8157	9.4790	10.1646	10.8693	11.5902	12.3244	13.0694	13.8228	14.5823	15.3460	16.1123	
4144	4.0118	4.3117	4.6550	5.0411	5.4691	5.9376	6.4448	6.9888	7.5670	8.1766	8.8146	9.4780	10.1637	10.8684	11.5894	12.3237	13.0688	13.8222	14.5818	15.3456	16.1119	
4146	4.0095	4.3096	4.6531	5.0394	5.4674	5.9360	6.4434	6.9875	7.5657	8.1754	8.8136	9.4770	10.1627	10.8676	11.5886	12.3230	13.0681	13.8216	14.5812	15.3451	16.1114	
4148	4.0071	4.3075	4.6512	5.0376	5.4658	5.9345	6.4420	6.9861	7.5645	8.1743	8.8125	9.4760	10.1618	10.8667	11.5878	12.3223	13.0675	13.8210	14.5807	15.3446	16.1110	
4150	4.0047	4.3053	4.6492	5.0358	5.4641	5.9329	6.4405	6.9848	7.5632	8.1731	8.8114	9.4750	10.1609	10.8659	11.5870	12.3216	13.0668	13.8204	14.5802	15.3441	16.1105	
4152	4.0023	4.3032	4.6473	5.0340	5.4624	5.9314	6.4391	6.9834	7.5620	8.1719	8.8103	9.4740	10.1599	10.8650	11.5862	12.3208	13.0661	13.8198	14.5796	15.3436	16.1101	
4154	3.9999	4.3010	4.6453	5.0322	5.4608	5.9299	6.4377	6.9822	7.5608	8.1708	8.8093	9.4730	10.1591	10.8642	11.5855	12.3201	13.0655	13.8192	14.5790	15.3431	16.1096	
4156	3.9975	4.2990	4.6435	5.0306	5.4593	5.9285	6.4365	6.9810	7.5597	8.1699	8.8084	9.4722	10.1583	10.8635	11.5848	12.3195	13.0649	13.8187	14.5785	15.3426	16.1091	
4158	3.9952	4.2969	4.6416	5.0289	5.4578	5.9272	6.4352	6.9799	7.5587	8.1689	8.8075	9.4714	10.1575	10.8628	11.5842	12.3189	13.0643	13.8181	14.5780	15.3421	16.1086	
4160	3.9928	4.2948	4.6397	5.0272	5.4563	5.9258	6.4340	6.9787	7.5576	8.1679	8.8066	9.4706	10.1568	10.8620	11.5835	12.3183	13.0637	13.8175	14.5774	15.3416	16.1081	
4162	3.9904	4.2926	4.6378	5.0255	5.4548	5.9244	6.4327	6.9776	7.5566	8.1669	8.8057	9.4697	10.1560	10.8613	11.5828	12.3176	13.0631	13.8169	14.5769	15.3410	16.1076	
4164	3.9880	4.2905	4.6359	5.0238	5.4532	5.9230	6.4314	6.9764	7.5555	8.1659	8.8047	9.4689	10.1552	10.8606	11.5821	12.3169	13.0625	13.8163	14.5763	15.3405	16.1071	
4166	3.9855	4.2883	4.6340	5.0220	5.4516	5.9215	6.4301	6.9752	7.5544	8.1649	8.8038	9.4680	10.1544	10.8598	11.5814	12.3163	13.0619	13.8157	14.5758	15.3399	16.1066	
4168	3.9831	4.2862	4.6321	5.0203	5.4500	5.9201	6.4288	6.9740	7.5533	8.1639	8.8029	9.4671	10.1535	10.8590	11.5807	12.3156	13.0612	13.8151	14.5752	15.3394	16.1060	
4170	3.9806	4.2840	4.6301	5.0185	5.4484	5.9186	6.4274	6.9727	7.5521	8.1628	8.8019	9.4662	10.1527	10.8583	11.5799	12.3149	13.0606	13.8145	14.5746	15.3388	16.1055	
4172	3.9781	4.2818	4.6281	5.0168	5.4468	5.9172	6.4261	6.9715	7.5510	8.1618	8.8009	9.4653	10.1519	10.8575	11.5792	12.3142	13.0599	13.8139	14.5740	15.3382	16.1049	
4174	3.9756	4.2796	4.6262	5.0150	5.4452	5.9157	6.4247	6.9703	7.5499	8.1607	8.7999	9.4644	10.1510	10.8567	11.5784	12.3135	13.0592	13.8132	14.5734	15.3376	16.1044	
4176	3.9731	4.2773	4.6242	5.0132	5.4436	5.9142	6.4234	6.9690	7.5487	8.1597	8.7989	9.4635	10.1501	10.8558	11.5777	12.3128	13.0585	13.8126	14.5727	15.3370	16.1038	
4178	3.9706	4.2751	4.6222	5.0113	5.4419	5.9127	6.4220	6.9677	7.5475	8.1586	8.7979	9.4625	10.1493	10.8550	11.5769	12.3120	13.0578	13.8119	14.5721	15.3364	16.1032	
4180	3.9680	4.2728	4.6201	5.0095	5.4403	5.9112	6.4206	6.9665	7.5463	8.1575	8.7969	9.4616	10.1484	10.8542	11.5761	12.3113	13.0571	13.8112	14.5714	15.3358	16.1026	
4182	3.9654	4.2706	4.6181	5.0077	5.4386	5.9096	6.4192	6.9652	7.5451	8.1564	8.7959	9.4606	10.1475	10.8533	11.5753	12.3105	13.0564	13.8106	14.5708	15.3352	16.1020	
4184	3.9629	4.2683	4.6160	5.0058	5.4369	5.9081	6.4178	6.9639	7.5439	8.1553	8.7948	9.4597	10.1466	10.8525	11.5745	12.3098	13.0557	13.8099	14.5701	15.3345	16.1014	
4186	3.9603	4.2660	4.6140	5.0039	5.4352	5.9065	6.4163	6.9625	7.5427	8.1541	8.7938	9.4587	10.1456	10.8516	11.5737	12.3090	13.0549	13.8092	14.5695	15.3339	16.1008	
4188	3.9575	4.2635	4.6117	5.0019	5.4333	5.9048	6.4148	6.9611	7.5414	8.1529	8.7927	9.4576	10.1447	10.8507	11.5729	12.3082	13.0542	13.8085	14.5688	15.3333	16.1002	
4190	3.9546	4.2609	4.6094	4.9998	5.4314	5.9030	6.4131	6.9596	7.5400	8.1516	8.7915	9.4566	10.1437	10.8498	11.5720	12.3075	13.0536	13.8079	14.5683	15.3328	16.0998	
4192	3.9517	4.2583	4.6070	4.9976	5.4294	5.9012	6.4114	6.9580	7.5386	8.1503	8.7903	9.4555	10.1427	10.8489	11.5712	12.3067	13.0529	13.8073	14.5677	15.3323	16.0993	
4194	3.9488	4.2557	4.6046	4.9954	5.4274	5.8993	6.4097	6.9565	7.5371	8.1490	8.7891	9.4544	10.1417	10.8480	11.5704	12.3060	13.0522	13.8067	14.5672	15.3318	16.0988	
4196	3.9459	4.2530	4.6022	4.9932	5.4254	5.8975	6.4080	6.9549	7.5357	8.1477	8.7879	9.4533	10.1407	10.8471	11.5695	12.3052	13.0515	13.8060	14.5666	15.3313	16.0984	
4198	3.9430	4.2504	4.5998	4.9910	5.4233	5.8956	6.4063	6.9533	7.5343	8.1463	8.7867	9.4521	10.1397	10.8462	11.5687	12.3044	13.0508	13.8054	14.5660	15.3307	16.0979	
4200	3.9400	4.2478	4.5974	4.9888	5.4213	5.8938	6.4046	6.9518	7.5328	8.1450	8.7854	9.4510	10.1386	10.8452	11.5678	12.3036	13.0501	13.8047	14.5654	15.3302	16.0974	
4202	3.9371	4.2451	4.5950	4.9866	5.4193	5.8919	6.4029	6.9502	7.5313	8.1437	8.7842	9.4499	10.1376	10.8443	11.5669	12.3028	13.0493	13.8040	14.5648	15.3296	16.0969	
4204	3.9342	4.2425	4.5926	4.9844	5.4173	5.8900	6.4011	6.9486	7.5298	8.1423	8.7829	9.4487	10.1365	10.8433	11.5661	12.3020	13.0486	13.8034	14.5642	15.3291	16.0963	
4206	3.9312	4.2398	4.5902	4.9822	5.4152	5.8881	6.3994	6.9469	7.5284	8.1409	8.7817	9.4476	10.1355	10.8423	11.5652	12.3012	13.0479	13.8027	14.5636	15.3285	16.0958	
4208	3.9283	4.2371	4.5877	4.9799	5.4132	5.8862	6.3977	6.9453	7.5269	8.1396	8.7804	9.4464	10.1344	10.8413	11.5643	12.3004	13.0471	13.8020	14.5629	15.3279	16.0953	
4210	3.9253	4.2345	4.5853	4.9777	5.4111	5.8843	6.3959	6.9437	7.5254	8.1382	8.7791	9.4452	10.1333	10.8404	11.5634	12.2996	13.0464	13.8013	14.5623	15.3274	16.0948	
4212	3.9224	4.2318	4.5828	4.9755	5.4090	5.8824	6.3941	6.9421	7.5239	8.1368	8.7779	9.4441	10.1322	10.8394	11.5625	12.2988	13.0456	13.8006	14.5617	15.3268	16.0942	
4214	3.9194	4.2291	4.5804	4.9732	5.4069	5.8805	6.3923	6.9404	7.5223	8.1354	8.7766	9.4429	10.1311	10.8384	11.5615	12.2979	13.0448	13.7999	14.5610	15.3262	16.0937	
4216	3.9165	4.2264	4.5779	4.9709	5.4049	5.8786	6.3906	6.9388	7.5208	8.1340	8.7753	9.4417	10.1300	10.8373	11.5606	12.2971	13.0440	13.7992	14.5604	15.3256	16.0931	
4218	3.9135	4.2237	4.5755	4.9687	5.4028	5.8766	6.3888	6.9371	7.5193	8.1325	8.7740	9.4405	10.1289	10.8363	11.5597	12.2962	13.0432	13.7985	14.5597	15.3249	16.0925	
4220	3.9105	4.2210	4.5730	4.9664	5.4007	5.8747	6.3870	6.9354	7.5177	8.1311	8.7726	9.4392	10.1278	10.8353	11.5587	12.2953	13.0424	13.7977	14.5590	15.3243	16.0920	
4222	3.9084	4.2192	4.5714	4.9650	5.3994	5.8736	6.3860	6.9346	7.5170	8.1305	8.7721	9.4388	10.1274	10.8350	11.5585	12.2952	13.0423	13.7977	14.5590	15.3243	16.0920	
4224	3.9081	4.2190	4.5714	4.9652	5.3998	5.8741	6.3867	6.9354	7.5179	8.1315	8.7732	9.4399	10.1286	10.8362	11.5598	12.2964	13.0436	13.7989	14.5603	15.3256	16.0932	
4226	3.9077	4.2189	4.5715	4.9654	5.4002	5.8747	6.3873	6.9362	7.5188	8.1325	8.7742	9.4410	10.1298	10.8374	11.5610	12.2977	13.0449	13.8002	14.5615	15.3269	16.0945	
4228	3.9073	4.2187	4.5715	4.9656	5.4005	5.8752	6.3880	6.9369	7.5197	8.1334	8.7753	9.4421	10.1309	10.8386	11.5622	12.2989	13.0461	13.8015	14.5628	15.3281	16.0957	
4230	3.9069	4.2185	4.5715	4.9658	5.4009	5.8757	6.3886	6.9377	7.5205	8.1344	8.7763	9.4432	10.1321	10.8398	11.5634	12.3002	13.0474	13.8027	14.5640	15.3293	16.0970	
4232	3.9065	4.2184	4.5716	4.9660	5.4013	5.8762	6.3893	6.9385	7.5214	8.1353	8.7773	9.4443	10.1332	10.8410	11.5646	12.3014	13.0486	13.8040	14.5653	15.3306	16.0982	
4234	3.9061	4.2182	4.5716	4.9662	5.4016	5.8767	6.3899	6.9392	7.5222	8.1363	8.7783	9.4454	10.1344	10.8421	11.5658	12.3026	13.0498	13.8052	14.5665	15.3318	16.0994	
4236	3.9057	4.2180	4.5716	4.9664	5.4020	5.8772	6.3905	6.9399	7.5231	8.1372	8.7793	9.4465	10.1355	10.8433	11.5670	12.3038	13.0511	13.8064	14.5677	15.3330	16.1006	
4238	3.9053	4.2178	4.5716	4.9666	5.4023	5.8777	6.3911	6.9407	7.5239	8.1381	8.7803	9.4475	10.1366	10.8444	11.5682	12.3050	13.0523	13.8076	14.5689	15.3342	16.1018	
4240	3.9050	4.2177	4.5716	4.9668	5.4027	5.8782	6.3918	6.9414	7.5248	8.1390	8.7813	9.4486	10.1377	10.8456	11.5693	12.3062	13.0534	13.8088	14.5701	15.3354	16.1029	
4242	3.9046	4.2176	4.5718	4.9671	5.4031	5.8788	6.3925	6.9422	7.5256	8.1400	8.7823	9.4496	10.1388	10.8467	11.5705	12.3073	13.0546	13.8099	14.5712	15.3365	16.1040	
4244	3.9043	4.2175	4.5719	4.9674	5.4036	5.8793	6.3932	6.9430	7.5265	8.1409	8.7833	9.4507	10.1398	10.8478	11.5716	12.3084	13.0557	13.8111	14.5723	15.3376	16.1051	
4246	3.9040	4.2174	4.5719	4.9677	5.4040	5.8799	6.3938	6.9438	7.5274	8.1419	8.7843	9.4517	10.1409	10.8489	11.5727	12.3096	13.0569	13.8122	14.5735	15.3387	16.1062	
4248	3.9036	4.2173	4.5720	4.9679	5.4044	5.8804	6.3945	6.9445	7.5282	8.1428	8.7853	9.4527	10.1420	10.8500	11.5738	12.3107	13.0580	13.8133	14.5746	15.3398	16.1073	
4250	3.9033	4.2171	4.5721	4.9682	5.4048	5.8810	6.3951	6.9453	7.5291	8.1437	8.7863	9.4537	10.1430	10.8511	11.5749	12.3118	13.0591	13.8144	14.5757	15.3409	16.1083	
4252	3.9029	4.2170	4.5722	4.9684	5.4052	5.8815	6.3958	6.9460	7.5299	8.1446	8.7872	9.4548	10.1441	10.8521	11.5760	12.3129	13.0602	13.8155	14.5768	15.3420	16.1094	
4254	3.9026	4.2169	4.5722	4.9686	5.4056	5.8820	6.3964	6.9468	7.5307	8.1455	8.7882	9.4557	10.1451	10.8532	11.5771	12.3140	13.0613	13.8166	14.5778	15.3430	16.1104	
4256	3.9022	4.2167	4.5723	4.9689	5.4060	5.8825	6.3971	6.9475	7.5315	8.1464	8.7891	9.4567	10.1461	10.8542	11.5781	12.3150	13.0623	13.8177	14.5789	15.3441	16.1115	
4258	3.9023	4.2170	4.5728	4.9695	5.4067	5.8834	6.3980	6.9485	7.5326	8.1474	8.7902	9.4579	10.1473	10.8554	11.5793	12.3162	13.0635	13.8188	14.5800	15.3452	16.1126	
4260	3.9025	4.2175	4.5734	4.9702	5.4076	5.8843	6.3990	6.9496	7.5337	8.1486	8.7914	9.4590	10.1484	10.8565	11.5804	12.3173	13.0646	13.8199	14.5811	15.3463	16.1137	
4262	3.9027	4.2179	4.5740	4.9710	5.4084	5.8853	6.4000	6.9506	7.5348	8.1497	8.7925	9.4602	10.1496	10.8577	11.5816	12.3185	13.0657	13.8211	14.5822	15.3474	16.1148	
4264	3.9029	4.2183	4.5746	4.9717	5.4092	5.8862	6.4010	6.9517	7.5358	8.1508	8.7936	9.4613	10.1507	10.8588	11.5827	12.3196	13.0669	13.8222	14.5833	15.3485	16.1158	
4266	3.9031	4.2187	4.5751	4.9724	5.4101	5.8871	6.4020	6.9527	7.5369	8.1519	8.7947	9.4624	10.1518	10.8599	11.5838	12.3207	13.0680	13.8233	14.5844	15.3495	16.1169	
4268	3.9033	4.2191	4.5757	4.9731	5.4109	5.8880	6.4029	6.9537	7.5380	8.1530	8.7958	9.4635	10.1529	10.8610	11.5849	12.3218	13.0691	13.8244	14.5855	15.3506	16.1179	
4270	3.9035	4.2195	4.5762	4.9738	5.4117	5.8889	6.4039	6.9547	7.5390	8.1540	8.7969	9.4646	10.1540	10.8622	11.5860	12.3229	13.0701	13.8254	14.5866	15.3517	16.1190	
4272	3.9037	4.2199	4.5768	4.9745	5.4125	5.8898	6.4048	6.9557	7.5400	8.1551	8.7980	9.4657	10.1551	10.8632	11.5871	12.3240	13.0712	13.8265	14.5876	15.3527	16.1200	
4274	3.9038	4.2202	4.5773	4.9752	5.4133	5.8906	6.4058	6.9567	7.5411	8.1562	8.7991	9.4668	10.1562	10.8643	11.5882	12.3250	13.0723	13.8276	14.5887	15.3538	16.1211	
4276	3.9040	4.2206	4.5779	4.9758	5.4140	5.8915	6.4067	6.9577	7.5421	8.1572	8.8001	9.4678	10.1573	10.8654	11.5893	12.3261	13.0733	13.8286	14.5897	15.3548	16.1221	
4278	3.9041	4.2209	4.5784	4.9765	5.4148	5.8923	6.4076	6.9586	7.5431	8.1582	8.8012	9.4689	10.1583	10.8665	11.5903	12.3272	13.0744	13.8296	14.5907	15.3558	16.1231	
4280	3.9042	4.2213	4.5789	4.9771	5.4156	5.8932	6.4085	6.9596	7.5441	8.1592	8.8022	9.4700	10.1594	10.8675	11.5914	12.3282	13.0754	13.8307	14.5918	15.3568	16.1241	
4282	3.9044	4.2216	4.5794	4.9778	5.4163	5.8940	6.4094	6.9606	7.5451	8.1603	8.8032	9.4710	10.1604	10.8685	11.5924	12.3292	13.0764	13.8317	14.5928	15.3578	16.1251	
4284	3.9045	4.2219	4.5799	4.9784	5.4170	5.8948	6.4103	6.9615	7.5460	8.1613	8.8043	9.4720	10.1615	10.8696	11.5934	12.3303	13.0775	13.8327	14.5938	15.3588	16.1260	
4286	3.9046	4.2223	4.5804	4.9790	5.4178	5.8956	6.4112	6.9624	7.5470	8.1622	8.8053	9.4730	10.1625	10.8706	11.5944	12.3313	13.0785	13.8337	14.5948	15.3598	16.1270	
4288	3.9047	4.2226	4.5808	4.9796	5.4185	5.8964	6.4121	6.9633	7.5479	8.1632	8.8063	9.4740	10.1635	10.8716	11.5955	12.3323	13.0795	13.8347	14.5957	15.3607	16.1280	
4290	3.9048	4.2229	4.5813	4.9802	5.4192	5.8972	6.4129	6.9642	7.5489	8.1642	8.8072	9.4750	10.1645	10.8726	11.5964	12.3333	13.0804	13.8356	14.5967	15.3617	16.1289	
4292	3.9049	4.2231	4.5818	4.9808	5.4199	5.8980	6.4138	6.9651	7.5498	8.1651	8.8082	9.4760	10.1655	10.8736	11.5974	12.3342	13.0814	13.8366	14.5977	15.3626	16.1298	
4294	3.9050	4.2235	4.5822	4.9814	5.4206	5.8989	6.4147	6.9661	7.5509	8.1662	8.8093	9.4772	10.1666	10.8748	11.5986	12.3354	13.0826	13.8377	14.5988	15.3637	16.1309	
4296	3.9051	4.2238	4.5827	4.9821	5.4214	5.8997	6.4156	6.9672	7.5519	8.1673	8.8105	9.4783	10.1678	10.8759	11.5998	12.3366	13.0837	13.8389	14.5999	15.3648	16.1320	
4298	3.9052	4.2241	4.5832	4.9827	5.4221	5.9006	6.4166	6.9682	7.5530	8.1684	8.8116	9.4795	10.1690	10.8771	11.6009	12.3377	13.0849	13.8400	14.6010	15.3659	16.1331	
4300	3.9052	4.2244	4.5837	4.9833	5.4229	5.9014	6.4175	6.9691	7.5540	8.1695	8.8127	9.4806	10.1701	10.8783	11.6021	12.3389	13.0860	13.8412	14.6021	15.3670	16.1342	
4302	3.9053	4.2246	4.5841	4.9839	5.4236	5.9023	6.4184	6.9701	7.5551	8.1706	8.8138	9.4817	10.1713	10.8794	11.6032	12.3400	13.0872	13.8423	14.6032	15.3681	16.1352	
4304	3.9054	4.2249	4.5846	4.9845	5.4243	5.9031	6.4193	6.9711	7.5561	8.1717	8.8149	9.4828	10.1724	10.8805	11.6044	12.3412	13.0883	13.8434	14.6043	15.3692	16.1363	
4306	3.9054	4.2252	4.5850	4.9851	5.4250	5.9039	6.4202	6.9721	7.5571	8.1727	8.8160	9.4839	10.1735	10.8817	11.6055	12.3423	13.0894	13.8445	14.6054	15.3702	16.1373	
4308	3.9055	4.2254	4.5855	4.9857	5.4257	5.9047	6.4211	6.9730	7.5581	8.1738	8.8171	9.4850	10.1746	10.8828	11.6066	12.3434	13.0905	13.8456	14.6065	15.3713	16.1383	
4310	3.9055	4.2257	4.5859	4.9862	5.4264	5.9055	6.4220	6.9739	7.5591	8.1748	8.8181	9.4861	10.1757	10.8839	11.6077	12.3445	13.0916	13.8466	14.6075	15.3723	16.1393	
4312	3.9055	4.2259	4.5862	4.9867	5.4270	5.9062	6.4227	6.9748	7.5600	8.1758	8.8191	9.4872	10.1768	10.8850	11.6088	12.3456	13.0927	13.8477	14.6086	15.3734	16.1404	
4314	3.9054	4.2260	4.5865	4.9872	5.4276	5.9069	6.4235	6.9756	7.5609	8.1767	8.8201	9.4882	10.1778	10.8860	11.6099	12.3466	13.0937	13.8488	14.6097	15.3745	16.1414	
4316	3.9054	4.2262	4.5869	4.9877	5.4282	5.9075	6.4243	6.9765	7.5618	8.1776	8.8211	9.4892	10.1788	10.8871	11.6109	12.3477	13.0948	13.8499	14.6107	15.3755	16.1425	
4318	3.9053	4.2263	4.5872	4.9881	5.4287	5.9082	6.4250	6.9773	7.5627	8.1786	8.8221	9.4902	10.1799	10.8881	11.6120	12.3488	13.0959	13.8509	14.6118	15.3765	16.1435	
4320	3.9053	4.2264	4.5875	4.9885	5.4293	5.9088	6.4257	6.9781	7.5636	8.1795	8.8230	9.4912	10.1809	10.8891	11.6130	12.3498	13.0969	13.8520	14.6128	15.3776	16.1445	
4322	3.9052	4.2266	4.5878	4.9890	5.4298	5.9095	6.4265	6.9789	7.5644	8.1804	8.8240	9.4922	10.1819	10.8902	11.6141	12.3509	13.0980	13.8530	14.6138	15.3786	16.1455	
4324	3.9051	4.2267	4.5880	4.9894	5.4304	5.9101	6.4272	6.9797	7.5653	8.1813	8.8249	9.4931	10.1829	10.8912	11.6151	12.3519	13.0990	13.8540	14.6149	15.3796	16.1465	
4326	3.9050	4.2268	4.5883	4.9898	5.4309	5.9107	6.4279	6.9805	7.5661	8.1822	8.8258	9.4941	10.1839	10.8922	11.6161	12.3529	13.1000	13.8550	14.6159	15.3806	16.1475	
4328	3.9049	4.2269	4.5886	4.9902	5.4314	5.9114	6.4286	6.9812	7.5669	8.1831	8.8268	9.4950	10.1848	10.8932	11.6171	12.3539	13.1010	13.8561	14.6169	15.3816	16.1484	
4330	3.9048	4.2270	4.5888	4.9906	5.4319	5.9119	6.4293	6.9820	7.5677	8.1839	8.8276	9.4959	10.1858	10.8941	11.6181	12.3549	13.1020	13.8570	14.6178	15.3825	16.1494	
4332	3.9047	4.2271	4.5891	4.9909	5.4324	5.9125	6.4299	6.9827	7.5685	8.1847	8.8285	9.4968	10.1867	10.8950	11.6190	12.3558	13.1029	13.8579	14.6188	15.3834	16.1503	
4334	3.9046	4.2271	4.5893	4.9913	5.4329	5.9131	6.4305	6.9834	7.5692	8.1855	8.8293	9.4977	10.1875	10.8959	11.6199	12.3567	13.1038	13.8589	14.6197	15.3843	16.1512	
4336	3.9045	4.2272	4.5895	4.9917	5.4333	5.9136	6.4312	6.9841	7.5700	8.1863	8.8301	9.4985	10.1884	10.8968	11.6208	12.3576	13.1047	13.8598	14.6206	15.3852	16.1521	
4338	3.9043	4.2272	4.5897	4.9920	5.4338	5.9142	6.4318	6.9847	7.5707	8.1871	8.8310	9.4994	10.1893	10.8977	11.6217	12.3585	13.1056	13.8607	14.6215	15.3861	16.1530	
4340	3.9042	4.2273	4.5899	4.9923	5.4342	5.9147	6.4324	6.9854	7.5714	8.1878	8.8318	9.5002	10.1901	10.8986	11.6226	12.3594	13.1065	13.8616	14.6224	15.3870	16.1538	
4342	3.9040	4.2273	4.5901	4.9926	5.4346	5.9152	6.4330	6.9861	7.5722	8.1886	8.8326	9.5010	10.1910	10.8994	11.6234	12.3603	13.1074	13.8625	14.6232	15.3879	16.1547	
4344	3.9039	4.2273	4.5903	4.9930	5.4351	5.9157	6.4336	6.9867	7.5729	8.1893	8.8333	9.5018	10.1918	10.9003	11.6243	12.3612	13.1083	13.8633	14.6241	15.3888	16.1555	
4346	3.9037	4.2274	4.5905	4.9933	5.4355	5.9163	6.4342	6.9874	7.5736	8.1901	8.8341	9.5026	10.1926	10.9011	11.6252	12.3620	13.1092	13.8642	14.6250	15.3896	16.1564	
4348	3.9035	4.2274	4.5906	4.9936	5.4359	5.9167	6.4348	6.9880	7.5743	8.1908	8.8349	9.5034	10.1935	10.9019	11.6260	12.3629	13.1100	13.8650	14.6258	15.3905	16.1572	
4350	3.9033	4.2274	4.5908	4.9939	5.4363	5.9172	6.4353	6.9886	7.5749	8.1915	8.8356	9.5042	10.1943	10.9028	11.6268	12.3637	13.1109	13.8659	14.6267	15.3913	16.1580	
4352	3.9031	4.2274	4.5910	4.9941	5.4367	5.9177	6.4359	6.9893	7.5756	8.1923	8.8364	9.5050	10.1951	10.9036	11.6277	12.3646	13.1117	13.8667	14.6275	15.3921	16.1589	
4354	3.9029	4.2274	4.5911	4.9944	5.4371	5.9182	6.4364	6.9899	7.5763	8.1930	8.8371	9.5058	10.1958	10.9044	11.6285	12.3654	13.1125	13.8675	14.6283	15.3929	16.1597	
4356	3.9027	4.2274	4.5912	4.9947	5.4374	5.9187	6.4370	6.9905	7.5769	8.1937	8.8379	9.5065	10.1966	10.9052	11.6293	12.3662	13.1133	13.8684	14.6291	15.3937	16.1605	
4358	3.9025	4.2273	4.5914	4.9949	5.4378	5.9191	6.4375	6.9911	7.5776	8.1943	8.8386	9.5073	10.1974	10.9060	11.6301	12.3670	13.1141	13.8692	14.6299	15.3945	16.1613	
4360	3.9023	4.2273	4.5915	4.9952	5.4382	5.9196	6.4380	6.9916	7.5782	8.1950	8.8393	9.5080	10.1982	10.9067	11.6309	12.3678	13.1149	13.8700	14.6307	15.3953	16.1620	
4362	3.9021	4.2273	4.5916	4.9954	5.4385	5.9200	6.4385	6.9922	7.5788	8.1957	8.8400	9.5087	10.1989	10.9075	11.6316	12.3686	13.1157	13.8708	14.6315	15.3961	16.1628	
4364	3.9019	4.2272	4.5917	4.9957	5.4388	5.9204	6.4390	6.9928	7.5794	8.1963	8.8407	9.5095	10.1996	10.9083	11.6324	12.3694	13.1165	13.8715	14.6323	15.3969	16.1636	
4366	3.9016	4.2272	4.5918	4.9959	5.4392	5.9208	6.4395	6.9933	7.5800	8.1970	8.8414	9.5102	10.2004	10.9090	11.6332	12.3701	13.1173	13.8723	14.6331	15.3976	16.1643	
4368	3.9014	4.2271	4.5919	4.9961	5.4395	5.9212	6.4400	6.9939	7.5806	8.1976	8.8420	9.5109	10.2011	10.9098	11.6339	12.3709	13.1180	13.8731	14.6338	15.3984	16.1651	
4370	3.9011	4.2270	4.5920	4.9963	5.4398	5.9216	6.4405	6.9944	7.5812	8.1983	8.8427	9.5116	10.2018	10.9105	11.6347	12.3716	13.1188	13.8738	14.6346	15.3991	16.1658	
4372	3.9009	4.2270	4.5921	4.9965	5.4401	5.9220	6.4409	6.9950	7.5818	8.1989	8.8434	9.5122	10.2025	10.9112	11.6354	12.3724	13.1195	13.8746	14.6353	15.3999	16.1666	
4374	3.9006	4.2269	4.5921	4.9967	5.4404	5.9224	6.4414	6.9955	7.5824	8.1995	8.8440	9.5129	10.2032	10.9119	11.6361	12.3731	13.1203	13.8753	14.6361	15.4006	16.1673	
4376	3.9003	4.2268	4.5922	4.9969	5.4407	5.9228	6.4418	6.9960	7.5829	8.2001	8.8446	9.5136	10.2039	10.9126	11.6368	12.3738	13.1210	13.8760	14.6368	15.4013	16.1680	
4378	3.9000	4.2267	4.5922	4.9971	5.4410	5.9232	6.4423	6.9965	7.5835	8.2007	8.8453	9.5142	10.2046	10.9133	11.6375	12.3745	13.1217	13.8767	14.6375	15.4020	16.1687	
4380	3.8997	4.2266	4.5923	4.9972	5.4413	5.9235	6.4427	6.9970	7.5840	8.2013	8.8459	9.5149	10.2052	10.9140	11.6382	12.3752	13.1224	13.8775	14.6382	15.4027	16.1694	
4382	3.8995	4.2265	4.5923	4.9974	5.4415	5.9239	6.4431	6.9975	7.5846	8.2019	8.8465	9.5155	10.2059	10.9147	11.6389	12.3759	13.1231	13.8782	14.6389	15.4034	16.1701	
4384	3.8992	4.2263	4.5923	4.9976	5.4418	5.9242	6.4436	6.9979	7.5851	8.2024	8.8471	9.5161	10.2065	10.9153	11.6396	12.3766	13.1238	13.8788	14.6396	15.4041	16.1707	
4386	3.8988	4.2262	4.5924	4.9977	5.4420	5.9246	6.4440	6.9984	7.5856	8.2030	8.8477	9.5167	10.2072	10.9160	11.6402	12.3773	13.1245	13.8795	14.6402	15.4048	16.1714	
4388	3.8985	4.2261	4.5924	4.9978	5.4422	5.9249	6.4443	6.9988	7.5861	8.2035	8.8482	9.5173	10.2077	10.9165	11.6408	12.3778	13.1250	13.8801	14.6408	15.4053	16.1719	
4390	3.8982	4.2259	4.5924	4.9979	5.4425	5.9252	6.4447	6.9992	7.5865	8.2040	8.8487	9.5178	10.2083	10.9171	11.6414	12.3784	13.1256	13.8807	14.6414	15.4059	16.1725	
4392	3.8979	4.2258	4.5924	4.9980	5.4427	5.9254	6.4450	6.9996	7.5870	8.2044	8.8492	9.5184	10.2088	10.9177	11.6420	12.3790	13.1262	13.8812	14.6419	15.4065	16.1731	
4394	3.8975	4.2256	4.5923	4.9981	5.4429	5.9257	6.4454	7.0000	7.5874	8.2049	8.8497	9.5189	10.2094	10.9182	11.6425	12.3795	13.1267	13.8818	14.6425	15.4070	16.1736	
4396	3.8972	4.2254	4.5923	4.9982	5.4431	5.9260	6.4457	7.0004	7.5879	8.2054	8.8502	9.5194	10.2099	10.9187	11.6430	12.3801	13.1273	13.8823	14.6430	15.4075	16.1741	
4398	3.8968	4.2253	4.5923	4.9983	5.4432	5.9263	6.4461	7.0008	7.5883	8.2058	8.8507	9.5199	10.2104	10.9193	11.6436	12.3806	13.1278	13.8829	14.6436	15.4081	16.1747	
4400	3.8965	4.2251	4.5922	4.9984	5.4434	5.9265	6.4464	7.0012	7.5887	8.2063	8.8512	9.5204	10.2109	10.9198	11.6441	12.3812	13.1284	13.8834	14.6441	15.4086	16.1752	
4402	3.8961	4.2249	4.5922	4.9985	5.4436	5.9268	6.4467	7.0016	7.5891	8.2067	8.8517	9.5209	10.2114	10.9203	11.6446	12.3817	13.1289	13.8839	14.6446	15.4091	16.1757	
4404	3.8957	4.2247	4.5921	4.9985	5.4437	5.9270	6.4470	7.0019	7.5895	8.2072	8.8521	9.5214	10.2119	10.9208	11.6451	12.3822	13.1294	13.8844	14.6451	15.4096	16.1762	
4406	3.8954	4.2245	4.5921	4.9986	5.4439	5.9272	6.4473	7.0023	7.5899	8.2076	8.8526	9.5218	10.2124	10.9213	11.6456	12.3827	13.1299	13.8849	14.6456	15.4101	16.1767	
4408	3.8950	4.2243	4.5920	4.9986	5.4440	5.9275	6.4476	7.0026	7.5903	8.2080	8.8530	9.5223	10.2129	10.9218	11.6461	12.3832	13.1304	13.8854	14.6461	15.4106	16.1772	
4410	3.8946	4.2241	4.5919	4.9987	5.4442	5.9277	6.4479	7.0029	7.5907	8.2084	8.8534	9.5228	10.2134	10.9223	11.6466	12.3837	13.1309	13.8859	14.6466	15.4111	16.1776	
4412	3.8942	4.2238	4.5918	4.9987	5.4443	5.9279	6.4481	7.0033	7.5910	8.2088	8.8539	9.5232	10.2138	10.9227	11.6471	12.3842	13.1314	13.8864	14.6471	15.4116	16.1781	
4414	3.8938	4.2236	4.5918	4.9987	5.4444	5.9281	6.4484	7.0036	7.5914	8.2092	8.8543	9.5236	10.2143	10.9232	11.6476	12.3846	13.1319	13.8869	14.6476	15.4120	16.1786	
4416	3.8934	4.2234	4.5917	4.9988	5.4445	5.9283	6.4487	7.0039	7.5917	8.2096	8.8547	9.5241	10.2147	10.9237	11.6480	12.3851	13.1323	13.8873	14.6480	15.4125	16.1790	
4418	3.8930	4.2231	4.5916	4.9988	5.4447	5.9285	6.4489	7.0042	7.5921	8.2100	8.8551	9.5245	10.2151	10.9241	11.6485	12.3856	13.1328	13.8878	14.6485	15.4129	16.1795	
4420	3.8926	4.2229	4.5914	4.9988	5.4448	5.9286	6.4492	7.0045	7.5924	8.2103	8.8555	9.5249	10.2156	10.9245	11.6489	12.3860	13.1332	13.8882	14.6489	15.4134	16.1799	
4422	3.8921	4.2226	4.5913	4.9988	5.4448	5.9288	6.4494	7.0048	7.5927	8.2107	8.8559	9.5253	10.2160	10.9250	11.6494	12.3864	13.1337	13.8887	14.6494	15.4138	16.1803	
4424	3.8917	4.2223	4.5912	4.9988	5.4449	5.9290	6.4496	7.0050	7.5930	8.2110	8.8562	9.5257	10.2164	10.9254	11.6498	12.3869	13.1341	13.8891	14.6498	15.4143	16.1808	
4426	3.8913	4.2221	4.5911	4.9987	5.4450	5.9291	6.4498	7.0053	7.5934	8.2114	8.8566	9.5261	10.2168	10.9258	11.6502	12.3873	13.1345	13.8895	14.6502	15.4147	16.1812	
4428	3.8908	4.2218	4.5909	4.9987	5.4451	5.9293	6.4500	7.0056	7.5937	8.2117	8.8570	9.5265	10.2172	10.9262	11.6506	12.3877	13.1349	13.8900	14.6506	15.4151	16.1816	
4430	3.8904	4.2215	4.5908	4.9987	5.4451	5.9294	6.4502	7.0058	7.5939	8.2120	8.8573	9.5268	10.2176	10.9266	11.6510	12.3881	13.1353	13.8904	14.6510	15.4155	16.1820	
4432	3.8899	4.2212	4.5906	4.9987	5.4452	5.9295	6.4504	7.0061	7.5942	8.2124	8.8577	9.5272	10.2179	10.9270	11.6514	12.3885	13.1357	13.8908	14.6514	15.4159	16.1824	
4434	3.8894	4.2209	4.5905	4.9986	5.4452	5.9297	6.4506	7.0063	7.5945	8.2127	8.8580	9.5275	10.2183	10.9274	11.6518	12.3889	13.1361	13.8912	14.6518	15.4163	16.1828	
4436	3.8890	4.2206	4.5903	4.9985	5.4453	5.9298	6.4508	7.0065	7.5948	8.2130	8.8583	9.5279	10.2187	10.9277	11.6522	12.3893	13.1365	13.8915	14.6522	15.4166	16.1831	
4438	3.8885	4.2203	4.5901	4.9985	5.4453	5.9299	6.4510	7.0067	7.5950	8.2133	8.8586	9.5282	10.2190	10.9281	11.6525	12.3897	13.1369	13.8919	14.6526	15.4170	16.1835	
4440	3.8880	4.2200	4.5899	4.9984	5.4453	5.9300	6.4511	7.0070	7.5953	8.2135	8.8589	9.5285	10.2194	10.9284	11.6529	12.3900	13.1373	13.8923	14.6530	15.4174	16.1839	
4442	3.8875	4.2197	4.5898	4.9983	5.4453	5.9301	6.4513	7.0072	7.5955	8.2138	8.8592	9.5289	10.2197	10.9288	11.6532	12.3904	13.1376	13.8926	14.6533	15.4177	16.1842	
4444	3.8870	4.2193	4.5896	4.9983	5.4453	5.9302	6.4514	7.0074	7.5958	8.2141	8.8595	9.5292	10.2200	10.9291	11.6536	12.3907	13.1380	13.8930	14.6537	15.4181	16.1846	
4446	3.8865	4.2190	4.5894	4.9982	5.4454	5.9302	6.4516	7.0075	7.5960	8.2144	8.8598	9.5295	10.2203	10.9294	11.6539	12.3911	13.1383	13.8933	14.6540	15.4184	16.1849	
4448	3.8860	4.2187	4.5892	4.9981	5.4453	5.9303	6.4517	7.0077	7.5962	8.2146	8.8601	9.5298	10.2207	10.9298	11.6543	12.3914	13.1386	13.8937	14.6543	15.4188	16.1852	
4450	3.8855	4.2183	4.5889	4.9980	5.4453	5.9304	6.4518	7.0079	7.5964	8.2148	8.8604	9.5301	10.2210	10.9301	11.6546	12.3917	13.1390	13.8940	14.6547	15.4191	16.1856	
4452	3.8850	4.2180	4.5887	4.9979	5.4453	5.9304	6.4519	7.0081	7.5966	8.2151	8.8606	9.5303	10.2213	10.9304	11.6549	12.3920	13.1393	13.8943	14.6550	15.4194	16.1859	
4454	3.8845	4.2176	4.5885	4.9977	5.4453	5.9305	6.4520	7.0082	7.5968	8.2153	8.8609	9.5306	10.2215	10.9307	11.6552	12.3923	13.1396	13.8946	14.6553	15.4197	16.1862	
4456	3.8840	4.2172	4.5883	4.9976	5.4453	5.9305	6.4521	7.0084	7.5970	8.2155	8.8611	9.5309	10.2218	10.9310	11.6555	12.3926	13.1399	13.8949	14.6556	15.4200	16.1865	
4458	3.8834	4.2169	4.5880	4.9975	5.4452	5.9305	6.4522	7.0085	7.5972	8.2157	8.8614	9.5311	10.2221	10.9313	11.6558	12.3929	13.1402	13.8952	14.6559	15.4203	16.1868	
4460	3.8829	4.2165	4.5878	4.9973	5.4452	5.9306	6.4523	7.0086	7.5974	8.2160	8.8616	9.5314	10.2223	10.9315	11.6561	12.3932	13.1405	13.8955	14.6562	15.4206	16.1871	
4462	3.8823	4.2161	4.5875	4.9972	5.4451	5.9306	6.4524	7.0088	7.5975	8.2161	8.8618	9.5316	10.2226	10.9318	11.6563	12.3935	13.1408	13.8958	14.6565	15.4209	16.1873	
4464	3.8818	4.2157	4.5873	4.9971	5.4450	5.9306	6.4525	7.0089	7.5977	8.2163	8.8620	9.5319	10.2229	10.9320	11.6566	12.3938	13.1410	13.8961	14.6568	15.4212	16.1876	
4466	3.8812	4.2153	4.5870	4.9969	5.4450	5.9306	6.4525	7.0090	7.5978	8.2165	8.8622	9.5321	10.2231	10.9323	11.6569	12.3940	13.1413	13.8963	14.6570	15.4214	16.1879	
4468	3.8807	4.2149	4.5867	4.9967	5.4449	5.9306	6.4526	7.0091	7.5980	8.2167	8.8624	9.5323	10.2233	10.9325	11.6571	12.3943	13.1416	13.8966	14.6573	15.4217	16.1881	
4470	3.8801	4.2145	4.5864	4.9966	5.4448	5.9306	6.4526	7.0092	7.5981	8.2169	8.8626	9.5325	10.2235	10.9328	11.6573	12.3945	13.1418	13.8969	14.6575	15.4219	16.1884	
4472	3.8795	4.2141	4.5862	4.9964	5.4447	5.9306	6.4527	7.0093	7.5983	8.2170	8.8628	9.5327	10.2238	10.9330	11.6576	12.3948	13.1421	13.8971	14.6578	15.4222	16.1886	
4474	3.8790	4.2137	4.5859	4.9962	5.4446	5.9305	6.4527	7.0094	7.5984	8.2172	8.8630	9.5329	10.2240	10.9332	11.6578	12.3950	13.1423	13.8973	14.6580	15.4224	16.1889	
4476	3.8784	4.2132	4.5856	4.9960	5.4445	5.9305	6.4527	7.0094	7.5985	8.2173	8.8632	9.5331	10.2242	10.9334	11.6580	12.3952	13.1425	13.8976	14.6582	15.4227	16.1891	
4478	3.8778	4.2128	4.5853	4.9958	5.4444	5.9305	6.4527	7.0095	7.5986	8.2174	8.8633	9.5333	10.2244	10.9336	11.6582	12.3955	13.1428	13.8978	14.6585	15.4229	16.1893	
4480	3.8772	4.2124	4.5850	4.9956	5.4443	5.9304	6.4528	7.0096	7.5987	8.2176	8.8635	9.5334	10.2245	10.9338	11.6584	12.3957	13.1430	13.8980	14.6587	15.4231	16.1895	
4482	3.8766	4.2119	4.5846	4.9954	5.4442	5.9304	6.4528	7.0096	7.5988	8.2177	8.8636	9.5336	10.2247	10.9340	11.6586	12.3959	13.1432	13.8982	14.6589	15.4233	16.1897	
4484	3.8760	4.2115	4.5843	4.9952	5.4440	5.9303	6.4528	7.0097	7.5989	8.2178	8.8637	9.5338	10.2249	10.9342	11.6588	12.3961	13.1434	13.8984	14.6591	15.4235	16.1899	
4486	3.8754	4.2110	4.5840	4.9949	5.4439	5.9302	6.4528	7.0097	7.5989	8.2179	8.8639	9.5339	10.2251	10.9344	11.6590	12.3962	13.1436	13.8986	14.6593	15.4237	16.1901	
4488	3.8748	4.2106	4.5837	4.9947	5.4438	5.9302	6.4527	7.0097	7.5990	8.2180	8.8640	9.5341	10.2252	10.9345	11.6592	12.3964	13.1437	13.8988	14.6595	15.4239	16.1903	
4490	3.8742	4.2101	4.5833	4.9945	5.4436	5.9301	6.4527	7.0098	7.5991	8.2181	8.8641	9.5342	10.2254	10.9347	11.6593	12.3966	13.1439	13.8990	14.6597	15.4241	16.1905	
4492	3.8735	4.2096	4.5830	4.9942	5.4434	5.9300	6.4527	7.0098	7.5991	8.2182	8.8642	9.5343	10.2255	10.9349	11.6595	12.3968	13.1441	13.8992	14.6598	15.4242	16.1907	
4494	3.8729	4.2091	4.5826	4.9940	5.4433	5.9299	6.4526	7.0098	7.5992	8.2183	8.8643	9.5344	10.2256	10.9350	11.6597	12.3969	13.1443	13.8993	14.6600	15.4244	16.1908	
4496	3.8723	4.2087	4.5823	4.9937	5.4431	5.9298	6.4526	7.0098	7.5992	8.2183	8.8644	9.5345	10.2258	10.9351	11.6598	12.3971	13.1444	13.8995	14.6602	15.4246	16.1910	
4498	3.8716	4.2082	4.5819	4.9935	5.4429	5.9297	6.4525	7.0098	7.5992	8.2184	8.8645	9.5347	10.2259	10.9353	11.6599	12.3972	13.1446	13.8996	14.6603	15.4247	16.1912	
4500	3.8710	4.2077	4.5815	4.9932	5.4427	5.9296	6.4525	7.0098	7.5993	8.2185	8.8646	9.5348	10.2260	10.9354	11.6601	12.3974	13.1447	13.8998	14.6605	15.4249	16.1913	
4502	3.8703	4.2072	4.5811	4.9929	5.4426	5.9295	6.4524	7.0098	7.5993	8.2185	8.8647	9.5348	10.2261	10.9355	11.6602	12.3975	13.1448	13.8999	14.6606	15.4250	16.1914	
4504	3.8697	4.2067	4.5808	4.9926	5.4424	5.9293	6.4524	7.0097	7.5993	8.2185	8.8647	9.5349	10.2262	10.9356	11.6603	12.3976	13.1450	13.9000	14.6607	15.4251	16.1916	
4506	3.8690	4.2062	4.5804	4.9924	5.4422	5.9292	6.4523	7.0097	7.5993	8.2186	8.8648	9.5350	10.2263	10.9357	11.6604	12.3977	13.1451	13.9002	14.6608	15.4253	16.1917	
4508	3.8684	4.2056	4.5800	4.9921	5.4419	5.9290	6.4522	7.0097	7.5993	8.2186	8.8648	9.5351	10.2264	10.9358	11.6605	12.3978	13.1452	13.9003	14.6610	15.4254	16.1918	
4510	3.8677	4.2051	4.5796	4.9918	5.4417	5.9289	6.4521	7.0096	7.5993	8.2186	8.8649	9.5351	10.2264	10.9359	11.6606	12.3979	13.1453	13.9004	14.6611	15.4255	16.1919	
4512	3.8670	4.2046	4.5792	4.9915	5.4415	5.9287	6.4520	7.0096	7.5993	8.2186	8.8649	9.5352	10.2265	10.9360	11.6607	12.3980	13.1454	13.9005	14.6612	15.4256	16.1920	
4514	3.8664	4.2041	4.5788	4.9911	5.4413	5.9286	6.4519	7.0095	7.5992	8.2186	8.8649	9.5352	10.2266	10.9360	11.6608	12.3981	13.1455	13.9006	14.6613	15.4257	16.1921	
4516	3.8657	4.2035	4.5783	4.9908	5.4410	5.9284	6.4518	7.0094	7.5992	8.2186	8.8650	9.5353	10.2266	10.9361	11.6609	12.3982	13.1456	13.9007	14.6614	15.4258	16.1922	
4518	3.8650	4.2030	4.5779	4.9905	5.4408	5.9282	6.4517	7.0094	7.5992	8.2186	8.8650	9.5353	10.2267	10.9362	11.6609	12.3983	13.1456	13.9007	14.6614	15.4259	16.1923	
4520	3.8643	4.2024	4.5775	4.9902	5.4406	5.9281	6.4515	7.0093	7.5991	8.2186	8.8650	9.5353	10.2267	10.9362	11.6610	12.3983	13.1457	13.9008	14.6615	15.4259	16.1924	
4522	3.8636	4.2019	4.5771	4.9898	5.4403	5.9279	6.4514	7.0092	7.5991	8.2186	8.8650	9.5353	10.2267	10.9363	11.6610	12.3984	13.1458	13.9009	14.6616	15.4260	16.1925	
4524	3.8629	4.2013	4.5766	4.9895	5.4400	5.9277	6.4513	7.0091	7.5990	8.2186	8.8650	9.5354	10.2268	10.9363	11.6611	12.3984	13.1458	13.9009	14.6617	15.4261	16.1925	
4526	3.8622	4.2007	4.5762	4.9891	5.4398	5.9275	6.4511	7.0090	7.5990	8.2185	8.8650	9.5354	10.2268	10.9363	11.6611	12.3985	13.1459	13.9010	14.6617	15.4261	16.1926	
4528	3.8615	4.2002	4.5757	4.9888	5.4395	5.9273	6.4509	7.0088	7.5988	8.2184	8.8649	9.5353	10.2267	10.9363	11.6611	12.3984	13.1458	13.9010	14.6617	15.4261	16.1925	
4530	3.8607	4.1996	4.5752	4.9884	5.4392	5.9270	6.4508	7.0087	7.5987	8.2183	8.8648	9.5352	10.2267	10.9362	11.6610	12.3984	13.1458	13.9009	14.6616	15.4261	16.1925	
4532	3.8600	4.1990	4.5748	4.9880	5.4389	5.9268	6.4506	7.0085	7.5986	8.2182	8.8647	9.5352	10.2266	10.9362	11.6610	12.3983	13.1458	13.9009	14.6616	15.4260	16.1925	
4534	3.8593	4.1984	4.5743	4.9877	5.4386	5.9265	6.4504	7.0084	7.5985	8.2181	8.8646	9.5351	10.2265	10.9361	11.6609	12.3983	13.1457	13.9008	14.6616	15.4260	16.1924	
4536	3.8586	4.1978	4.5738	4.9873	5.4383	5.9263	6.4502	7.0082	7.5983	8.2180	8.8645	9.5350	10.2265	10.9360	11.6609	12.3982	13.1456	13.9008	14.6615	15.4259	16.1924	
4538	3.8578	4.1972	4.5733	4.9869	5.4379	5.9260	6.4499	7.0080	7.5982	8.2179	8.8644	9.5349	10.2264	10.9360	11.6608	12.3982	13.1456	13.9007	14.6614	15.4259	16.1924	
4540	3.8571	4.1966	4.5728	4.9865	5.4376	5.9258	6.4497	7.0079	7.5980	8.2178	8.8643	9.5348	10.2263	10.9359	11.6607	12.3981	13.1455	13.9006	14.6614	15.4258	16.1923	
4542	3.8563	4.1960	4.5723	4.9861	5.4373	5.9255	6.4495	7.0077	7.5979	8.2176	8.8642	9.5347	10.2262	10.9358	11.6606	12.3980	13.1454	13.9006	14.6613	15.4258	16.1922	
4544	3.8556	4.1954	4.5718	4.9857	5.4370	5.9252	6.4493	7.0075	7.5977	8.2175	8.8641	9.5346	10.2261	10.9357	11.6605	12.3979	13.1453	13.9005	14.6612	15.4257	16.1922	
4546	3.8548	4.1948	4.5713	4.9852	5.4366	5.9249	6.4490	7.0073	7.5976	8.2173	8.8639	9.5345	10.2260	10.9356	11.6604	12.3978	13.1453	13.9004	14.6612	15.4256	16.1921	
4548	3.8541	4.1941	4.5708	4.9848	5.4363	5.9246	6.4488	7.0071	7.5974	8.2172	8.8638	9.5343	10.2259	10.9355	11.6603	12.3977	13.1452	13.9003	14.6611	15.4255	16.1920	
4550	3.8533	4.1935	4.5703	4.9844	5.4359	5.9243	6.4486	7.0069	7.5972	8.2170	8.8637	9.5342	10.2257	10.9354	11.6602	12.3976	13.1451	13.9002	14.6610	15.4254	16.1919	
4552	3.8525	4.1929	4.5698	4.9840	5.4355	5.9240	6.4483	7.0067	7.5970	8.2169	8.8635	9.5341	10.2256	10.9352	11.6601	12.3975	13.1449	13.9001	14.6609	15.4253	16.1918	
4554	3.8518	4.1922	4.5692	4.9835	5.4352	5.9237	6.4480	7.0064	7.5968	8.2167	8.8633	9.5339	10.2255	10.9351	11.6600	12.3974	13.1448	13.9000	14.6608	15.4252	16.1917	
4556	3.8510	4.1916	4.5687	4.9831	5.4348	5.9234	6.4478	7.0062	7.5966	8.2165	8.8632	9.5338	10.2253	10.9350	11.6598	12.3973	13.1447	13.8999	14.6606	15.4251	16.1916	
4558	3.8502	4.1910	4.5682	4.9826	5.4344	5.9231	6.4475	7.0060	7.5964	8.2163	8.8630	9.5336	10.2252	10.9348	11.6597	12.3971	13.1446	13.8998	14.6605	15.4250	16.1915	
4560	3.8494	4.1903	4.5676	4.9822	5.4341	5.9228	6.4472	7.0057	7.5962	8.2161	8.8628	9.5334	10.2250	10.9347	11.6596	12.3970	13.1444	13.8996	14.6604	15.4249	16.1914	
4562	3.8486	4.1896	4.5671	4.9817	5.4337	5.9224	6.4469	7.0055	7.5960	8.2159	8.8627	9.5333	10.2249	10.9345	11.6594	12.3968	13.1443	13.8995	14.6603	15.4247	16.1913	
4564	3.8478	4.1890	4.5665	4.9812	5.4333	5.9221	6.4467	7.0052	7.5957	8.2157	8.8625	9.5331	10.2247	10.9344	11.6593	12.3967	13.1442	13.8993	14.6601	15.4246	16.1911	
4566	3.8470	4.1883	4.5660	4.9808	5.4329	5.9218	6.4464	7.0050	7.5955	8.2155	8.8623	9.5329	10.2245	10.9342	11.6591	12.3965	13.1440	13.8992	14.6600	15.4245	16.1910	
4568	3.8462	4.1876	4.5654	4.9803	5.4325	5.9214	6.4461	7.0047	7.5953	8.2153	8.8621	9.5327	10.2243	10.9340	11.6589	12.3964	13.1438	13.8990	14.6598	15.4243	16.1908	
4570	3.8454	4.1870	4.5648	4.9798	5.4321	5.9211	6.4457	7.0044	7.5950	8.2151	8.8619	9.5325	10.2242	10.9338	11.6588	12.3962	13.1437	13.8989	14.6597	15.4242	16.1907	
4572	3.8446	4.1863	4.5643	4.9793	5.4316	5.9207	6.4454	7.0042	7.5948	8.2148	8.8617	9.5323	10.2240	10.9337	11.6586	12.3960	13.1435	13.8987	14.6595	15.4240	16.1905	
4574	3.8438	4.1856	4.5637	4.9788	5.4312	5.9203	6.4451	7.0039	7.5945	8.2146	8.8614	9.5321	10.2238	10.9335	11.6584	12.3958	13.1433	13.8985	14.6593	15.4238	16.1904	
4576	3.8430	4.1849	4.5631	4.9783	5.4308	5.9200	6.4448	7.0036	7.5943	8.2144	8.8612	9.5319	10.2236	10.9333	11.6582	12.3957	13.1432	13.8984	14.6592	15.4237	16.1902	
4578	3.8422	4.1842	4.5625	4.9778	5.4304	5.9196	6.4445	7.0033	7.5940	8.2141	8.8610	9.5317	10.2234	10.9331	11.6580	12.3955	13.1430	13.8982	14.6590	15.4235	16.1901	
4580	3.8414	4.1835	4.5619	4.9773	5.4299	5.9192	6.4441	7.0030	7.5937	8.2139	8.8607	9.5315	10.2231	10.9329	11.6578	12.3953	13.1428	13.8980	14.6588	15.4233	16.1899	
4582	3.8405	4.1828	4.5613	4.9768	5.4295	5.9188	6.4438	7.0027	7.5934	8.2136	8.8605	9.5312	10.2229	10.9326	11.6576	12.3951	13.1426	13.8978	14.6586	15.4231	16.1897	
4584	3.8397	4.1821	4.5607	4.9763	5.4290	5.9184	6.4434	7.0024	7.5932	8.2133	8.8602	9.5310	10.2227	10.9324	11.6574	12.3948	13.1424	13.8976	14.6584	15.4229	16.1895	
4586	3.8389	4.1814	4.5601	4.9758	5.4286	5.9181	6.4431	7.0021	7.5929	8.2131	8.8600	9.5308	10.2225	10.9322	11.6571	12.3946	13.1421	13.8974	14.6582	15.4227	16.1893	
4588	3.8380	4.1807	4.5595	4.9753	5.4281	5.9176	6.4427	7.0017	7.5926	8.2128	8.8597	9.5305	10.2222	10.9320	11.6569	12.3944	13.1419	13.8972	14.6580	15.4225	16.1891	
4590	3.8372	4.1800	4.5589	4.9747	5.4277	5.9172	6.4424	7.0014	7.5923	8.2125	8.8595	9.5303	10.2220	10.9317	11.6567	12.3942	13.1417	13.8969	14.6578	15.4223	16.1889	
4592	3.8363	4.1792	4.5583	4.9742	5.4272	5.9168	6.4420	7.0010	7.5919	8.2122	8.8592	9.5299	10.2217	10.9314	11.6564	12.3939	13.1414	13.8967	14.6575	15.4221	16.1887	
4594	3.8355	4.1785	4.5576	4.9736	5.4267	5.9163	6.4415	7.0006	7.5915	8.2118	8.8588	9.5296	10.2214	10.9311	11.6561	12.3936	13.1412	13.8964	14.6573	15.4219	16.1885	
4596	3.8346	4.1777	4.5570	4.9730	5.4262	5.9159	6.4411	7.0002	7.5912	8.2115	8.8585	9.5293	10.2210	10.9308	11.6558	12.3933	13.1409	13.8962	14.6570	15.4216	16.1882	
4598	3.8337	4.1770	4.5563	4.9724	5.4256	5.9154	6.4407	6.9998	7.5908	8.2111	8.8581	9.5290	10.2207	10.9305	11.6555	12.3930	13.1406	13.8959	14.6568	15.4213	16.1880	
4600	3.8329	4.1762	4.5556	4.9719	5.4251	5.9149	6.4402	6.9994	7.5904	8.2108	8.8578	9.5286	10.2204	10.9302	11.6552	12.3927	13.1403	13.8956	14.6565	15.4211	16.1877	
4602	3.8320	4.1755	4.5550	4.9713	5.4246	5.9145	6.4398	6.9990	7.5900	8.2104	8.8574	9.5283	10.2201	10.9299	11.6549	12.3924	13.1400	13.8953	14.6562	15.4208	16.1875	
4604	3.8311	4.1747	4.5543	4.9707	5.4241	5.9140	6.4394	6.9986	7.5896	8.2100	8.8571	9.5279	10.2197	10.9295	11.6545	12.3921	13.1397	13.8950	14.6559	15.4205	16.1872	
4606	3.8302	4.1739	4.5536	4.9701	5.4235	5.9135	6.4389	6.9982	7.5892	8.2096	8.8567	9.5276	10.2194	10.9292	11.6542	12.3918	13.1394	13.8947	14.6556	15.4203	16.1869	
4608	3.8293	4.1732	4.5530	4.9695	5.4230	5.9130	6.4385	6.9978	7.5888	8.2092	8.8563	9.5272	10.2190	10.9288	11.6539	12.3915	13.1391	13.8944	14.6553	15.4200	16.1867	
4610	3.8284	4.1724	4.5523	4.9689	5.4224	5.9125	6.4380	6.9973	7.5884	8.2089	8.8559	9.5268	10.2187	10.9285	11.6535	12.3911	13.1388	13.8941	14.6550	15.4197	16.1864	
4612	3.8276	4.1716	4.5516	4.9683	5.4219	5.9120	6.4375	6.9969	7.5880	8.2085	8.8556	9.5265	10.2183	10.9281	11.6532	12.3908	13.1384	13.8938	14.6547	15.4194	16.1861	
4614	3.8266	4.1708	4.5508	4.9676	5.4213	5.9114	6.4370	6.9964	7.5875	8.2080	8.8551	9.5261	10.2179	10.9278	11.6529	12.3905	13.1381	13.8935	14.6545	15.4191	16.1859	
4616	3.8256	4.1699	4.5500	4.9669	5.4206	5.9108	6.4364	6.9959	7.5871	8.2076	8.8547	9.5257	10.2176	10.9274	11.6525	12.3902	13.1378	13.8932	14.6542	15.4189	16.1857	
4618	3.8246	4.1690	4.5492	4.9661	5.4199	5.9102	6.4359	6.9953	7.5866	8.2071	8.8543	9.5253	10.2172	10.9271	11.6522	12.3899	13.1376	13.8930	14.6540	15.4187	16.1854	
4620	3.8236	4.1681	4.5484	4.9654	5.4192	5.9096	6.4353	6.9948	7.5861	8.2067	8.8539	9.5249	10.2168	10.9267	11.6519	12.3896	13.1373	13.8927	14.6537	15.4184	16.1852	
4622	3.8226	4.1672	4.5476	4.9646	5.4186	5.9089	6.4347	6.9943	7.5856	8.2062	8.8534	9.5245	10.2164	10.9264	11.6515	12.3892	13.1370	13.8924	14.6534	15.4182	16.1850	
4624	3.8216	4.1663	4.5467	4.9639	5.4179	5.9083	6.4341	6.9937	7.5851	8.2057	8.8530	9.5241	10.2160	10.9260	11.6512	12.3889	13.1367	13.8921	14.6532	15.4179	16.1847	
4626	3.8206	4.1653	4.5459	4.9631	5.4172	5.9077	6.4335	6.9932	7.5846	8.2052	8.8525	9.5236	10.2156	10.9256	11.6508	12.3886	13.1363	13.8918	14.6529	15.4177	16.1845	
4628	3.8195	4.1644	4.5451	4.9624	5.4165	5.9070	6.4329	6.9926	7.5840	8.2047	8.8521	9.5232	10.2152	10.9253	11.6505	12.3882	13.1360	13.8915	14.6526	15.4174	16.1843	
4630	3.8185	4.1635	4.5443	4.9616	5.4158	5.9064	6.4323	6.9921	7.5835	8.2043	8.8516	9.5228	10.2148	10.9249	11.6501	12.3879	13.1357	13.8912	14.6523	15.4172	16.1840	
4632	3.8175	4.1626	4.5434	4.9608	5.4151	5.9057	6.4317	6.9915	7.5830	8.2038	8.8512	9.5223	10.2144	10.9245	11.6498	12.3876	13.1354	13.8909	14.6520	15.4169	16.1837	
4634	3.8165	4.1617	4.5426	4.9601	5.4144	5.9051	6.4311	6.9909	7.5825	8.2033	8.8507	9.5219	10.2140	10.9241	11.6494	12.3872	13.1350	13.8906	14.6517	15.4166	16.1835	
4636	3.8154	4.1607	4.5417	4.9593	5.4137	5.9044	6.4305	6.9904	7.5820	8.2028	8.8503	9.5215	10.2136	10.9237	11.6491	12.3869	13.1347	13.8903	14.6515	15.4163	16.1832	
4638	3.8144	4.1598	4.5410	4.9586	5.4131	5.9039	6.4300	6.9900	7.5816	8.2024	8.8499	9.5212	10.2134	10.9235	11.6488	12.3867	13.1345	13.8901	14.6513	15.4162	16.1831	
4640	3.8134	4.1590	4.5402	4.9579	5.4124	5.9033	6.4295	6.9895	7.5812	8.2021	8.8496	9.5209	10.2131	10.9232	11.6486	12.3865	13.1343	13.8899	14.6511	15.4160	16.1829	
4642	3.8124	4.1581	4.5394	4.9572	5.4118	5.9027	6.4290	6.9891	7.5808	8.2017	8.8493	9.5206	10.2128	10.9230	11.6484	12.3862	13.1341	13.8897	14.6509	15.4158	16.1827	
4644	3.8114	4.1572	4.5386	4.9565	5.4111	5.9022	6.4285	6.9886	7.5803	8.2014	8.8490	9.5203	10.2125	10.9227	11.6481	12.3860	13.1339	13.8895	14.6507	15.4156	16.1825	
4646	3.8104	4.1563	4.5377	4.9557	5.4105	5.9016	6.4280	6.9881	7.5799	8.2010	8.8486	9.5200	10.2122	10.9225	11.6479	12.3858	13.1337	13.8893	14.6505	15.4154	16.1823	
4648	3.8094	4.1553	4.5369	4.9550	5.4098	5.9010	6.4275	6.9877	7.5795	8.2006	8.8483	9.5197	10.2120	10.9222	11.6476	12.3855	13.1335	13.8891	14.6503	15.4151	16.1821	
4650	3.8084	4.1544	4.5361	4.9543	5.4092	5.9004	6.4269	6.9872	7.5791	8.2002	8.8479	9.5194	10.2117	10.9219	11.6474	12.3853	13.1332	13.8888	14.6500	15.4149	16.1818	
4652	3.8074	4.1535	4.5353	4.9535	5.4085	5.8998	6.4264	6.9867	7.5786	8.1998	8.8476	9.5190	10.2114	10.9216	11.6471	12.3850	13.1330	13.8886	14.6498	15.4147	16.1816	
4654	3.8063	4.1526	4.5345	4.9528	5.4079	5.8992	6.4259	6.9862	7.5782	8.1994	8.8472	9.5187	10.2111	10.9214	11.6468	12.3848	13.1327	13.8884	14.6496	15.4145	16.1814	
4656	3.8053	4.1517	4.5336	4.9521	5.4072	5.8986	6.4253	6.9857	7.5778	8.1990	8.8468	9.5184	10.2107	10.9211	11.6466	12.3845	13.1325	13.8881	14.6493	15.4143	16.1812	
4658	3.8043	4.1508	4.5328	4.9513	5.4065	5.8980	6.4248	6.9852	7.5773	8.1986	8.8465	9.5180	10.2104	10.9208	11.6463	12.3843	13.1322	13.8879	14.6491	15.4140	16.1809	
4660	3.8033	4.1498	4.5320	4.9506	5.4058	5.8974	6.4242	6.9847	7.5769	8.1982	8.8461	9.5177	10.2101	10.9205	11.6460	12.3840	13.1320	13.8876	14.6489	15.4138	16.1807	
4662	3.8022	4.1489	4.5312	4.9498	5.4052	5.8968	6.4237	6.9842	7.5764	8.1978	8.8457	9.5173	10.2098	10.9202	11.6457	12.3837	13.1317	13.8874	14.6486	15.4135	16.1805	
4664	3.8012	4.1480	4.5303	4.9491	5.4045	5.8962	6.4231	6.9837	7.5759	8.1974	8.8453	9.5170	10.2094	10.9199	11.6454	12.3834	13.1314	13.8871	14.6484	15.4133	16.1802	
4666	3.8001	4.1470	4.5295	4.9483	5.4038	5.8956	6.4226	6.9832	7.5755	8.1969	8.8449	9.5166	10.2091	10.9195	11.6451	12.3832	13.1312	13.8868	14.6481	15.4130	16.1800	
4668	3.7991	4.1461	4.5286	4.9475	5.4031	5.8949	6.4220	6.9827	7.5750	8.1965	8.8445	9.5162	10.2088	10.9192	11.6448	12.3829	13.1309	13.8866	14.6478	15.4128	16.1797	
4670	3.7981	4.1452	4.5278	4.9468	5.4024	5.8943	6.4214	6.9822	7.5745	8.1961	8.8441	9.5159	10.2084	10.9189	11.6445	12.3826	13.1306	13.8863	14.6476	15.4125	16.1794	
4672	3.7970	4.1442	4.5269	4.9460	5.4017	5.8937	6.4208	6.9816	7.5740	8.1956	8.8437	9.5155	10.2081	10.9186	11.6442	12.3823	13.1303	13.8860	14.6473	15.4122	16.1792	
4674	3.7960	4.1433	4.5261	4.9452	5.4010	5.8930	6.4202	6.9811	7.5736	8.1952	8.8433	9.5151	10.2077	10.9182	11.6439	12.3820	13.1300	13.8857	14.6470	15.4120	16.1789	
4676	3.7949	4.1423	4.5252	4.9444	5.4003	5.8924	6.4197	6.9806	7.5731	8.1947	8.8429	9.5147	10.2074	10.9179	11.6435	12.3816	13.1297	13.8854	14.6467	15.4117	16.1786	
4678	3.7939	4.1414	4.5243	4.9436	5.3996	5.8917	6.4191	6.9800	7.5726	8.1943	8.8425	9.5143	10.2070	10.9175	11.6432	12.3813	13.1294	13.8851	14.6464	15.4114	16.1784	
4680	3.7928	4.1404	4.5235	4.9429	5.3989	5.8911	6.4185	6.9795	7.5721	8.1938	8.8420	9.5139	10.2066	10.9172	11.6429	12.3810	13.1291	13.8848	14.6461	15.4111	16.1781	
4682	3.7918	4.1395	4.5226	4.9421	5.3981	5.8904	6.4179	6.9789	7.5716	8.1933	8.8416	9.5135	10.2062	10.9168	11.6425	12.3807	13.1288	13.8845	14.6458	15.4108	16.1778	
4684	3.7905	4.1383	4.5214	4.9409	5.3970	5.8894	6.4169	6.9780	7.5706	8.1925	8.8408	9.5127	10.2055	10.9161	11.6419	12.3801	13.1282	13.8840	14.6453	15.4103	16.1773	
4686	3.7893	4.1371	4.5203	4.9398	5.3959	5.8883	6.4158	6.9769	7.5696	8.1915	8.8399	9.5119	10.2047	10.9154	11.6411	12.3794	13.1276	13.8834	14.6448	15.4098	16.1768	
4688	3.7881	4.1359	4.5191	4.9386	5.3948	5.8872	6.4147	6.9759	7.5687	8.1906	8.8390	9.5110	10.2039	10.9146	11.6404	12.3787	13.1269	13.8828	14.6442	15.4093	16.1763	
4690	3.7869	4.1347	4.5179	4.9375	5.3937	5.8861	6.4137	6.9749	7.5677	8.1896	8.8381	9.5102	10.2030	10.9138	11.6397	12.3780	13.1263	13.8822	14.6436	15.4087	16.1758	
4692	3.7857	4.1335	4.5167	4.9363	5.3925	5.8850	6.4126	6.9739	7.5667	8.1887	8.8372	9.5093	10.2022	10.9131	11.6390	12.3773	13.1256	13.8816	14.6431	15.4082	16.1754	
4694	3.7844	4.1323	4.5155	4.9351	5.3914	5.8839	6.4115	6.9728	7.5657	8.1877	8.8363	9.5084	10.2014	10.9123	11.6382	12.3766	13.1250	13.8810	14.6425	15.4077	16.1748	
4696	3.7832	4.1311	4.5143	4.9340	5.3903	5.8827	6.4105	6.9718	7.5647	8.1868	8.8353	9.5076	10.2006	10.9115	11.6375	12.3760	13.1243	13.8804	14.6419	15.4071	16.1743	
4698	3.7820	4.1299	4.5132	4.9328	5.3891	5.8816	6.4094	6.9708	7.5637	8.1858	8.8344	9.5067	10.1998	10.9107	11.6368	12.3753	13.1237	13.8797	14.6413	15.4066	16.1738	
4700	3.7808	4.1287	4.5120	4.9317	5.3880	5.8805	6.4083	6.9697	7.5627	8.1849	8.8335	9.5058	10.1989	10.9099	11.6360	12.3746	13.1230	13.8791	14.6408	15.4061	16.1733	
4702	3.7796	4.1275	4.5108	4.9305	5.3868	5.8794	6.4072	6.9687	7.5617	8.1839	8.8326	9.5050	10.1981	10.9091	11.6353	12.3739	13.1224	13.8785	14.6402	15.4055	16.1728	
4704	3.7784	4.1263	4.5096	4.9293	5.3857	5.8783	6.4062	6.9676	7.5607	8.1829	8.8317	9.5041	10.1973	10.9084	11.6345	12.3731	13.1217	13.8779	14.6396	15.4049	16.1723	
4706	3.7771	4.1251	4.5084	4.9282	5.3846	5.8772	6.4051	6.9666	7.5597	8.1820	8.8308	9.5032	10.1964	10.9076	11.6338	12.3724	13.1210	13.8772	14.6390	15.4044	16.1718	
4708	3.7760	4.1239	4.5073	4.9271	5.3835	5.8762	6.4041	6.9656	7.5587	8.1811	8.8299	9.5024	10.1956	10.9068	11.6330	12.3717	13.1203	13.8766	14.6384	15.4038	16.1712	
4710	3.7748	4.1228	4.5062	4.9260	5.3824	5.8751	6.4031	6.9646	7.5578	8.1802	8.8290	9.5015	10.1948	10.9060	11.6323	12.3710	13.1197	13.8759	14.6377	15.4032	16.1706	
4712	3.7737	4.1216	4.5051	4.9249	5.3814	5.8741	6.4021	6.9637	7.5569	8.1792	8.8281	9.5007	10.1940	10.9052	11.6315	12.3703	13.1190	13.8753	14.6371	15.4026	16.1700	
4714	3.7725	4.1205	4.5040	4.9238	5.3803	5.8731	6.4011	6.9627	7.5559	8.1783	8.8272	9.4998	10.1932	10.9044	11.6308	12.3696	13.1183	13.8746	14.6365	15.4020	16.1695	
4716	3.7714	4.1194	4.5029	4.9228	5.3793	5.8720	6.4001	6.9617	7.5550	8.1774	8.8264	9.4990	10.1924	10.9036	11.6300	12.3688	13.1176	13.8739	14.6358	15.4014	16.1689	
4718	3.7702	4.1182	4.5018	4.9217	5.3782	5.8710	6.3991	6.9607	7.5540	8.1765	8.8255	9.4981	10.1915	10.9029	11.6293	12.3681	13.1169	13.8733	14.6352	15.4007	16.1683	
4720	3.7691	4.1171	4.5007	4.9206	5.3771	5.8700	6.3980	6.9598	7.5531	8.1756	8.8246	9.4973	10.1907	10.9021	11.6285	12.3674	13.1162	13.8726	14.6345	15.4001	16.1677	
4722	3.7679	4.1160	4.4996	4.9195	5.3761	5.8689	6.3970	6.9588	7.5521	8.1747	8.8237	9.4964	10.1899	10.9013	11.6277	12.3666	13.1155	13.8719	14.6339	15.3995	16.1671	
4724	3.7668	4.1149	4.4984	4.9184	5.3750	5.8679	6.3960	6.9578	7.5512	8.1737	8.8228	9.4955	10.1890	10.9005	11.6270	12.3659	13.1147	13.8712	14.6332	15.3989	16.1665	
4726	3.7656	4.1137	4.4973	4.9173	5.3740	5.8669	6.3950	6.9568	7.5502	8.1728	8.8219	9.4947	10.1882	10.8997	11.6262	12.3651	13.1140	13.8705	14.6326	15.3982	16.1659	
4728	3.7645	4.1126	4.4962	4.9162	5.3729	5.8658	6.3940	6.9558	7.5493	8.1719	8.8210	9.4938	10.1874	10.8988	11.6254	12.3644	13.1133	13.8699	14.6319	15.3976	16.1653	
4730	3.7633	4.1115	4.4951	4.9151	5.3718	5.8648	6.3930	6.9548	7.5483	8.1709	8.8201	9.4929	10.1865	10.8980	11.6246	12.3636	13.1126	13.8692	14.6312	15.3970	16.1647	
4732	3.7632	4.1114	4.4951	4.9151	5.3718	5.8648	6.3930	6.9548	7.5483	8.1710	8.8201	9.4929	10.1866	10.8981	11.6247	12.3637	13.1126	13.8692	14.6313	15.3970	16.1647	
4734	3.7640	4.1121	4.4958	4.9159	5.3726	5.8655	6.3937	6.9556	7.5490	8.1717	8.8208	9.4937	10.1873	10.8987	11.6253	12.3643	13.1132	13.8698	14.6319	15.3976	16.1652	
4736	3.7647	4.1129	4.4965	4.9166	5.3733	5.8663	6.3945	6.9563	7.5498	8.1724	8.8216	9.4944	10.1879	10.8994	11.6260	12.3650	13.1139	13.8704	14.6324	15.3981	16.1658	
4738	3.7654	4.1136	4.4973	4.9173	5.3741	5.8670	6.3952	6.9571	7.5505	8.1732	8.8223	9.4951	10.1886	10.9001	11.6266	12.3656	13.1145	13.8710	14.6330	15.3987	16.1663	
4740	3.7661	4.1143	4.4980	4.9181	5.3748	5.8678	6.3960	6.9578	7.5513	8.1739	8.8230	9.4958	10.1893	10.9007	11.6273	12.3662	13.1151	13.8716	14.6336	15.3992	16.1668	
4742	3.7669	4.1151	4.4988	4.9188	5.3755	5.8685	6.3967	6.9586	7.5520	8.1746	8.8237	9.4965	10.1900	10.9014	11.6279	12.3668	13.1157	13.8721	14.6341	15.3997	16.1673	
4744	3.7676	4.1158	4.4995	4.9196	5.3763	5.8693	6.3975	6.9593	7.5527	8.1753	8.8244	9.4971	10.1907	10.9020	11.6285	12.3674	13.1163	13.8727	14.6347	15.4003	16.1678	
4746	3.7683	4.1165	4.5002	4.9203	5.3770	5.8700	6.3982	6.9600	7.5534	8.1760	8.8251	9.4978	10.1913	10.9027	11.6292	12.3680	13.1168	13.8733	14.6352	15.4008	16.1683	
4748	3.7690	4.1172	4.5009	4.9210	5.3778	5.8707	6.3989	6.9607	7.5542	8.1767	8.8258	9.4985	10.1920	10.9033	11.6298	12.3686	13.1174	13.8738	14.6357	15.4013	16.1688	
4750	3.7697	4.1179	4.5017	4.9217	5.3785	5.8715	6.3996	6.9615	7.5549	8.1774	8.8265	9.4992	10.1926	10.9040	11.6304	12.3692	13.1180	13.8744	14.6363	15.4018	16.1693	
4752	3.7704	4.1187	4.5024	4.9225	5.3792	5.8722	6.4004	6.9622	7.5556	8.1781	8.8271	9.4998	10.1933	10.9046	11.6310	12.3698	13.1186	13.8749	14.6368	15.4023	16.1698	
4754	3.7711	4.1194	4.5031	4.9232	5.3799	5.8729	6.4011	6.9629	7.5563	8.1788	8.8278	9.5005	10.1939	10.9052	11.6316	12.3704	13.1191	13.8755	14.6373	15.4028	16.1703	
4756	3.7718	4.1201	4.5038	4.9239	5.3806	5.8736	6.4018	6.9636	7.5570	8.1795	8.8285	9.5011	10.1945	10.9058	11.6322	12.3710	13.1197	13.8760	14.6378	15.4033	16.1708	
4758	3.7726	4.1208	4.5046	4.9247	5.3814	5.8744	6.4025	6.9643	7.5577	8.1802	8.8292	9.5018	10.1952	10.9065	11.6328	12.3715	13.1202	13.8765	14.6383	15.4038	16.1712	
4760	3.7733	4.1216	4.5053	4.9254	5.3822	5.8751	6.4033	6.9651	7.5584	8.1809	8.8299	9.5025	10.1958	10.9071	11.6334	12.3721	13.1208	13.8770	14.6388	15.4043	16.1717	
4762	3.7741	4.1223	4.5061	4.9262	5.3829	5.8759	6.4040	6.9658	7.5591	8.1816	8.8306	9.5031	10.1965	10.9077	11.6340	12.3727	13.1213	13.8775	14.6393	15.4047	16.1721	
4764	3.7748	4.1231	4.5068	4.9269	5.3837	5.8766	6.4048	6.9665	7.5599	8.1823	8.8312	9.5038	10.1971	10.9083	11.6346	12.3732	13.1218	13.8780	14.6398	15.4052	16.1726	
4766	3.7755	4.1238	4.5076	4.9277	5.3844	5.8774	6.4055	6.9673	7.5606	8.1830	8.8319	9.5044	10.1977	10.9089	11.6351	12.3738	13.1224	13.8785	14.6403	15.4056	16.1730	
4768	3.7763	4.1245	4.5083	4.9284	5.3852	5.8781	6.4063	6.9680	7.5613	8.1837	8.8326	9.5051	10.1984	10.9095	11.6357	12.3743	13.1229	13.8790	14.6407	15.4061	16.1734	
4770	3.7770	4.1253	4.5090	4.9292	5.3859	5.8789	6.4070	6.9687	7.5620	8.1844	8.8332	9.5057	10.1990	10.9101	11.6363	12.3749	13.1234	13.8795	14.6412	15.4065	16.1738	
4772	3.7777	4.1260	4.5098	4.9299	5.3866	5.8796	6.4077	6.9694	7.5627	8.1851	8.8339	9.5064	10.1996	10.9107	11.6368	12.3754	13.1239	13.8800	14.6417	15.4070	16.1743	
4774	3.7784	4.1267	4.5105	4.9306	5.3874	5.8803	6.4084	6.9701	7.5634	8.1857	8.8346	9.5070	10.2002	10.9112	11.6374	12.3759	13.1244	13.8805	14.6421	15.4074	16.1747	
4776	3.7792	4.1275	4.5112	4.9314	5.3881	5.8810	6.4092	6.9708	7.5641	8.1864	8.8352	9.5076	10.2008	10.9118	11.6379	12.3764	13.1249	13.8810	14.6426	15.4078	16.1751	
4778	3.7799	4.1282	4.5120	4.9321	5.3888	5.8818	6.4099	6.9715	7.5647	8.1871	8.8358	9.5082	10.2014	10.9124	11.6385	12.3770	13.1254	13.8814	14.6430	15.4083	16.1755	
4780	3.7806	4.1289	4.5127	4.9328	5.3896	5.8825	6.4106	6.9722	7.5654	8.1877	8.8365	9.5089	10.2020	10.9129	11.6390	12.3775	13.1259	13.8819	14.6435	15.4087	16.1759	
4782	3.7813	4.1296	4.5134	4.9335	5.3903	5.8832	6.4113	6.9729	7.5661	8.1884	8.8371	9.5094	10.2025	10.9135	11.6395	12.3780	13.1263	13.8823	14.6439	15.4091	16.1763	
4784	3.7822	4.1304	4.5141	4.9342	5.3909	5.8837	6.4117	6.9734	7.5665	8.1888	8.8375	9.5098	10.2029	10.9138	11.6399	12.3783	13.1267	13.8827	14.6442	15.4094	16.1766	
4786	3.7831	4.1313	4.5149	4.9349	5.3914	5.8843	6.4122	6.9738	7.5669	8.1891	8.8378	9.5102	10.2032	10.9142	11.6402	12.3786	13.1270	13.8830	14.6446	15.4098	16.1770	
4788	3.7841	4.1321	4.5156	4.9355	5.3920	5.8848	6.4127	6.9743	7.5673	8.1895	8.8382	9.5105	10.2036	10.9145	11.6405	12.3789	13.1273	13.8833	14.6449	15.4101	16.1773	
4790	3.7850	4.1329	4.5163	4.9361	5.3926	5.8853	6.4132	6.9747	7.5677	8.1899	8.8386	9.5108	10.2039	10.9148	11.6408	12.3793	13.1276	13.8837	14.6452	15.4104	16.1776	
4792	3.7858	4.1337	4.5170	4.9368	5.3932	5.8858	6.4137	6.9751	7.5681	8.1903	8.8389	9.5112	10.2042	10.9151	11.6411	12.3796	13.1280	13.8840	14.6455	15.4107	16.1779	
4794	3.7867	4.1345	4.5177	4.9374	5.3938	5.8863	6.4141	6.9755	7.5685	8.1907	8.8393	9.5115	10.2045	10.9154	11.6414	12.3799	13.1283	13.8843	14.6458	15.4111	16.1783	
4796	3.7876	4.1352	4.5184	4.9380	5.3943	5.8868	6.4146	6.9760	7.5689	8.1910	8.8396	9.5118	10.2049	10.9158	11.6418	12.3802	13.1286	13.8846	14.6461	15.4114	16.1786	
4798	3.7885	4.1360	4.5191	4.9387	5.3949	5.8873	6.4151	6.9764	7.5693	8.1914	8.8399	9.5122	10.2052	10.9161	11.6421	12.3805	13.1289	13.8849	14.6464	15.4117	16.1789	
4800	3.7894	4.1368	4.5198	4.9393	5.3954	5.8878	6.4155	6.9768	7.5697	8.1917	8.8403	9.5125	10.2055	10.9164	11.6423	12.3808	13.1292	13.8852	14.6467	15.4120	16.1792	
4802	3.7902	4.1376	4.5205	4.9399	5.3960	5.8883	6.4159	6.9772	7.5701	8.1921	8.8406	9.5128	10.2058	10.9166	11.6426	12.3811	13.1294	13.8855	14.6470	15.4123	16.1795	
4804	3.7911	4.1383	4.5212	4.9405	5.3965	5.8888	6.4164	6.9776	7.5704	8.1924	8.8409	9.5131	10.2061	10.9169	11.6429	12.3813	13.1297	13.8857	14.6473	15.4126	16.1798	
4806	3.7920	4.1391	4.5218	4.9411	5.3970	5.8893	6.4168	6.9780	7.5708	8.1928	8.8412	9.5134	10.2064	10.9172	11.6432	12.3816	13.1300	13.8860	14.6476	15.4128	16.1801	
4808	3.7928	4.1398	4.5225	4.9417	5.3976	5.8898	6.4172	6.9784	7.5711	8.1931	8.8415	9.5137	10.2066	10.9175	11.6435	12.3819	13.1303	13.8863	14.6479	15.4131	16.1804	
4810	3.7937	4.1406	4.5232	4.9423	5.3981	5.8902	6.4177	6.9788	7.5715	8.1934	8.8419	9.5140	10.2069	10.9178	11.6437	12.3822	13.1305	13.8866	14.6482	15.4134	16.1806	
4812	3.7945	4.1413	4.5238	4.9428	5.3986	5.8907	6.4181	6.9792	7.5718	8.1937	8.8422	9.5143	10.2072	10.9180	11.6440	12.3824	13.1308	13.8868	14.6484	15.4137	16.1809	
4814	3.7953	4.1421	4.5245	4.9434	5.3991	5.8912	6.4185	6.9795	7.5722	8.1941	8.8425	9.5146	10.2075	10.9183	11.6443	12.3827	13.1311	13.8871	14.6487	15.4139	16.1812	
4816	3.7962	4.1428	4.5251	4.9440	5.3996	5.8916	6.4189	6.9799	7.5725	8.1944	8.8427	9.5148	10.2077	10.9186	11.6445	12.3829	13.1313	13.8874	14.6489	15.4142	16.1815	
4818	3.7970	4.1435	4.5258	4.9446	5.4001	5.8921	6.4193	6.9803	7.5729	8.1947	8.8430	9.5151	10.2080	10.9188	11.6448	12.3832	13.1316	13.8876	14.6492	15.4145	16.1817	
4820	3.7978	4.1443	4.5264	4.9451	5.4006	5.8925	6.4197	6.9806	7.5732	8.1950	8.8433	9.5154	10.2082	10.9191	11.6450	12.3834	13.1318	13.8879	14.6494	15.4147	16.1820	
4822	3.7986	4.1450	4.5270	4.9457	5.4011	5.8929	6.4201	6.9810	7.5735	8.1953	8.8436	9.5156	10.2085	10.9193	11.6453	12.3837	13.1321	13.8881	14.6497	15.4150	16.1822	
4824	3.7995	4.1457	4.5277	4.9462	5.4016	5.8934	6.4205	6.9813	7.5738	8.1956	8.8439	9.5159	10.2087	10.9195	11.6455	12.3839	13.1323	13.8883	14.6499	15.4152	16.1825	
4826	3.8003	4.1464	4.5283	4.9468	5.4021	5.8938	6.4209	6.9817	7.5741	8.1958	8.8441	9.5161	10.2090	10.9198	11.6457	12.3841	13.1325	13.8886	14.6502	15.4155	16.1827	
4828	3.8011	4.1471	4.5289	4.9473	5.4026	5.8942	6.4212	6.9820	7.5744	8.1961	8.8444	9.5164	10.2092	10.9200	11.6459	12.3844	13.1327	13.8888	14.6504	15.4157	16.1830	
4830	3.8019	4.1478	4.5295	4.9479	5.4030	5.8947	6.4216	6.9823	7.5747	8.1964	8.8446	9.5166	10.2095	10.9202	11.6462	12.3846	13.1330	13.8890	14.6506	15.4159	16.1832	
4832	3.8027	4.1485	4.5301	4.9484	5.4035	5.8951	6.4220	6.9827	7.5750	8.1967	8.8449	9.5169	10.2097	10.9205	11.6464	12.3848	13.1332	13.8892	14.6509	15.4161	16.1834	
4834	3.8034	4.1492	4.5307	4.9489	5.4040	5.8955	6.4223	6.9830	7.5753	8.1969	8.8451	9.5171	10.2099	10.9207	11.6466	12.3850	13.1334	13.8894	14.6511	15.4164	16.1837	
4836	3.8042	4.1499	4.5313	4.9495	5.4045	5.8959	6.4227	6.9833	7.5757	8.1972	8.8454	9.5174	10.2102	10.9209	11.6468	12.3853	13.1336	13.8897	14.6513	15.4166	16.1839	
4838	3.8050	4.1506	4.5320	4.9500	5.4050	5.8964	6.4232	6.9838	7.5761	8.1976	8.8458	9.5177	10.2105	10.9213	11.6472	12.3856	13.1340	13.8900	14.6516	15.4169	16.1842	
4840	3.8058	4.1513	4.5326	4.9506	5.4055	5.8969	6.4236	6.9842	7.5765	8.1980	8.8462	9.5181	10.2109	10.9216	11.6475	12.3859	13.1343	13.8903	14.6519	15.4172	16.1845	
4842	3.8066	4.1520	4.5332	4.9512	5.4060	5.8973	6.4241	6.9846	7.5769	8.1984	8.8465	9.5184	10.2112	10.9219	11.6478	12.3862	13.1346	13.8906	14.6522	15.4175	16.1848	
4844	3.8074	4.1527	4.5338	4.9517	5.4065	5.8978	6.4245	6.9850	7.5772	8.1988	8.8469	9.5188	10.2115	10.9223	11.6482	12.3865	13.1349	13.8909	14.6525	15.4178	16.1851	
4846	3.8082	4.1534	4.5345	4.9523	5.4070	5.8983	6.4249	6.9854	7.5776	8.1991	8.8472	9.5191	10.2119	10.9226	11.6485	12.3868	13.1352	13.8912	14.6528	15.4181	16.1853	
4848	3.8090	4.1541	4.5351	4.9528	5.4075	5.8987	6.4254	6.9858	7.5780	8.1995	8.8476	9.5195	10.2122	10.9229	11.6488	12.3871	13.1355	13.8915	14.6531	15.4184	16.1856	
4850	3.8097	4.1547	4.5357	4.9534	5.4080	5.8992	6.4258	6.9862	7.5784	8.1998	8.8479	9.5198	10.2125	10.9232	11.6491	12.3874	13.1358	13.8918	14.6534	15.4186	16.1859	
4852	3.8105	4.1554	4.5363	4.9539	5.4085	5.8996	6.4262	6.9866	7.5787	8.2002	8.8483	9.5201	10.2128	10.9235	11.6494	12.3877	13.1361	13.8921	14.6536	15.4189	16.1861	
4854	3.8113	4.1561	4.5369	4.9545	5.4090	5.9001	6.4266	6.9870	7.5791	8.2005	8.8486	9.5204	10.2132	10.9238	11.6497	12.3880	13.1364	13.8924	14.6539	15.4192	16.1864	
4856	3.8120	4.1568	4.5375	4.9550	5.4095	5.9005	6.4270	6.9874	7.5795	8.2009	8.8489	9.5208	10.2135	10.9241	11.6500	12.3883	13.1366	13.8926	14.6542	15.4194	16.1866	
4858	3.8128	4.1574	4.5381	4.9555	5.4100	5.9010	6.4274	6.9877	7.5798	8.2012	8.8493	9.5211	10.2138	10.9244	11.6503	12.3886	13.1369	13.8929	14.6544	15.4197	16.1869	
4860	3.8135	4.1581	4.5386	4.9560	5.4104	5.9014	6.4278	6.9881	7.5802	8.2016	8.8496	9.5214	10.2141	10.9247	11.6506	12.3889	13.1372	13.8932	14.6547	15.4199	16.1871	
4862	3.8143	4.1587	4.5392	4.9565	5.4109	5.9018	6.4282	6.9885	7.5805	8.2019	8.8499	9.5217	10.2144	10.9250	11.6508	12.3891	13.1374	13.8934	14.6550	15.4202	16.1874	
4864	3.8150	4.1594	4.5398	4.9571	5.4114	5.9022	6.4286	6.9888	7.5809	8.2022	8.8502	9.5220	10.2146	10.9253	11.6511	12.3894	13.1377	13.8937	14.6552	15.4204	16.1876	
4866	3.8158	4.1600	4.5404	4.9576	5.4118	5.9027	6.4290	6.9892	7.5812	8.2025	8.8505	9.5223	10.2149	10.9256	11.6514	12.3897	13.1380	13.8939	14.6555	15.4207	16.1879	
4868	3.8165	4.1607	4.5409	4.9581	5.4123	5.9031	6.4294	6.9896	7.5816	8.2029	8.8508	9.5226	10.2152	10.9259	11.6517	12.3900	13.1382	13.8942	14.6557	15.4209	16.1881	
4870	3.8172	4.1613	4.5415	4.9586	5.4127	5.9035	6.4298	6.9899	7.5819	8.2032	8.8511	9.5229	10.2155	10.9261	11.6519	12.3902	13.1385	13.8944	14.6559	15.4211	16.1883	
4872	3.8179	4.1620	4.5421	4.9591	5.4132	5.9039	6.4301	6.9903	7.5822	8.2035	8.8514	9.5232	10.2158	10.9264	11.6522	12.3905	13.1387	13.8947	14.6562	15.4214	16.1885	
4874	3.8187	4.1626	4.5426	4.9596	5.4136	5.9043	6.4305	6.9906	7.5825	8.2038	8.8517	9.5235	10.2161	10.9267	11.6525	12.3907	13.1390	13.8949	14.6564	15.4216	16.1888	
4876	3.8194	4.1632	4.5432	4.9601	5.4141	5.9047	6.4309	6.9910	7.5829	8.2041	8.8520	9.5238	10.2164	10.9270	11.6527	12.3910	13.1392	13.8952	14.6566	15.4218	16.1890	
4878	3.8201	4.1638	4.5437	4.9605	5.4145	5.9051	6.4313	6.9913	7.5832	8.2044	8.8523	9.5240	10.2166	10.9272	11.6530	12.3912	13.1395	13.8954	14.6569	15.4220	16.1892	
4880	3.8208	4.1644	4.5443	4.9610	5.4149	5.9055	6.4316	6.9916	7.5835	8.2047	8.8526	9.5243	10.2169	10.9275	11.6532	12.3915	13.1397	13.8956	14.6571	15.4222	16.1894	
4882	3.8215	4.1650	4.5448	4.9615	5.4154	5.9059	6.4320	6.9920	7.5838	8.2050	8.8529	9.5246	10.2172	10.9277	11.6535	12.3917	13.1399	13.8958	14.6573	15.4224	16.1896	
4884	3.8222	4.1657	4.5453	4.9620	5.4158	5.9063	6.4323	6.9923	7.5841	8.2053	8.8532	9.5248	10.2174	10.9280	11.6537	12.3919	13.1402	13.8961	14.6575	15.4227	16.1898	
4886	3.8229	4.1663	4.5458	4.9624	5.4162	5.9066	6.4327	6.9926	7.5844	8.2056	8.8534	9.5251	10.2177	10.9282	11.6539	12.3922	13.1404	13.8963	14.6577	15.4229	16.1900	
4888	3.8235	4.1668	4.5464	4.9629	5.4166	5.9070	6.4330	6.9929	7.5847	8.2059	8.8537	9.5254	10.2179	10.9285	11.6542	12.3924	13.1406	13.8965	14.6579	15.4230	16.1902	
4890	3.8242	4.1674	4.5469	4.9634	5.4170	5.9074	6.4333	6.9932	7.5850	8.2061	8.8540	9.5256	10.2181	10.9287	11.6544	12.3926	13.1408	13.8967	14.6581	15.4232	16.1903	
4892	3.8249	4.1680	4.5474	4.9638	5.4174	5.9077	6.4337	6.9936	7.5853	8.2064	8.8542	9.5259	10.2184	10.9289	11.6546	12.3928	13.1410	13.8969	14.6583	15.4234	16.1905	
4894	3.8256	4.1686	4.5479	4.9642	5.4178	5.9081	6.4340	6.9938	7.5856	8.2067	8.8545	9.5261	10.2186	10.9291	11.6548	12.3930	13.1412	13.8971	14.6585	15.4236	16.1907	
4896	3.8262	4.1692	4.5484	4.9647	5.4182	5.9084	6.4343	6.9941	7.5858	8.2069	8.8547	9.5263	10.2188	10.9293	11.6550	12.3932	13.1414	13.8973	14.6587	15.4238	16.1909	
4898	3.8269	4.1697	4.5489	4.9651	5.4186	5.9088	6.4346	6.9944	7.5861	8.2071	8.8549	9.5265	10.2190	10.9295	11.6552	12.3934	13.1416	13.8974	14.6589	15.4240	16.1910	
4900	3.8275	4.1703	4.5494	4.9655	5.4189	5.9091	6.4349	6.9947	7.5863	8.2074	8.8551	9.5267	10.2192	10.9297	11.6554	12.3936	13.1418	13.8976	14.6590	15.4241	16.1912	
4902	3.8282	4.1708	4.5498	4.9659	5.4193	5.9094	6.4352	6.9949	7.5866	8.2076	8.8553	9.5269	10.2194	10.9299	11.6556	12.3938	13.1419	13.8978	14.6592	15.4243	16.1914	
4904	3.8288	4.1714	4.5503	4.9664	5.4197	5.9097	6.4355	6.9952	7.5868	8.2078	8.8556	9.5271	10.2196	10.9301	11.6558	12.3940	13.1421	13.8980	14.6594	15.4244	16.1915	
4906	3.8295	4.1719	4.5508	4.9668	5.4200	5.9100	6.4357	6.9954	7.5870	8.2080	8.8558	9.5273	10.2198	10.9303	11.6560	12.3941	13.1423	13.8981	14.6595	15.4246	16.1917	
4908	3.8301	4.1725	4.5513	4.9672	5.4204	5.9104	6.4360	6.9957	7.5873	8.2083	8.8560	9.5275	10.2200	10.9305	11.6561	12.3943	13.1425	13.8983	14.6597	15.4247	16.1918	
4910	3.8307	4.1730	4.5517	4.9676	5.4207	5.9107	6.4363	6.9959	7.5875	8.2085	8.8562	9.5277	10.2202	10.9306	11.6563	12.3945	13.1426	13.8984	14.6598	15.4249	16.1920	
4912	3.8314	4.1736	4.5522	4.9680	5.4211	5.9110	6.4366	6.9962	7.5877	8.2087	8.8564	9.5279	10.2203	10.9308	11.6565	12.3946	13.1428	13.8986	14.6600	15.4250	16.1921	
4914	3.8320	4.1741	4.5526	4.9683	5.4214	5.9113	6.4368	6.9964	7.5879	8.2089	8.8566	9.5281	10.2205	10.9310	11.6566	12.3948	13.1429	13.8987	14.6601	15.4252	16.1922	
4916	3.8326	4.1746	4.5531	4.9687	5.4217	5.9116	6.4371	6.9967	7.5881	8.2091	8.8567	9.5282	10.2207	10.9311	11.6568	12.3949	13.1431	13.8989	14.6603	15.4253	16.1924	
4918	3.8332	4.1751	4.5535	4.9691	5.4221	5.9119	6.4373	6.9969	7.5884	8.2093	8.8569	9.5284	10.2209	10.9313	11.6569	12.3951	13.1432	13.8990	14.6604	15.4254	16.1925	
4920	3.8338	4.1757	4.5540	4.9695	5.4224	5.9121	6.4376	6.9971	7.5886	8.2095	8.8571	9.5286	10.2210	10.9315	11.6571	12.3952	13.1434	13.8992	14.6605	15.4256	16.1926	
4922	3.8344	4.1762	4.5544	4.9699	5.4227	5.9124	6.4379	6.9973	7.5888	8.2097	8.8573	9.5288	10.2212	10.9316	11.6572	12.3954	13.1435	13.8993	14.6607	15.4257	16.1927	
4924	3.8350	4.1767	4.5548	4.9702	5.4230	5.9127	6.4381	6.9976	7.5890	8.2098	8.8574	9.5289	10.2213	10.9317	11.6574	12.3955	13.1436	13.8994	14.6608	15.4258	16.1928	
4926	3.8356	4.1772	4.5553	4.9706	5.4234	5.9130	6.4383	6.9978	7.5892	8.2100	8.8576	9.5291	10.2215	10.9319	11.6575	12.3956	13.1438	13.8995	14.6609	15.4259	16.1930	
4928	3.8362	4.1777	4.5557	4.9710	5.4237	5.9132	6.4386	6.9980	7.5893	8.2102	8.8578	9.5292	10.2216	10.9320	11.6576	12.3958	13.1439	13.8997	14.6610	15.4260	16.1931	
4930	3.8368	4.1782	4.5561	4.9713	5.4240	5.9135	6.4388	6.9982	7.5895	8.2104	8.8579	9.5294	10.2218	10.9322	11.6578	12.3959	13.1440	13.8998	14.6611	15.4262	16.1932	
4932	3.8374	4.1787	4.5565	4.9717	5.4243	5.9138	6.4390	6.9984	7.5897	8.2105	8.8581	9.5295	10.2219	10.9323	11.6579	12.3960	13.1441	13.8999	14.6612	15.4263	16.1933	
4934	3.8380	4.1792	4.5569	4.9720	5.4246	5.9140	6.4393	6.9986	7.5899	8.2107	8.8582	9.5297	10.2220	10.9324	11.6580	12.3961	13.1442	13.9000	14.6614	15.4264	16.1934	
4936	3.8385	4.1796	4.5573	4.9724	5.4249	5.9143	6.4395	6.9988	7.5901	8.2108	8.8584	9.5298	10.2222	10.9325	11.6581	12.3962	13.1443	13.9001	14.6615	15.4265	16.1935	
4938	3.8391	4.1801	4.5577	4.9727	5.4252	5.9145	6.4397	6.9990	7.5902	8.2110	8.8585	9.5299	10.2223	10.9327	11.6583	12.3964	13.1445	13.9002	14.6616	15.4266	16.1936	
4940	3.8397	4.1806	4.5581	4.9731	5.4254	5.9148	6.4399	6.9992	7.5904	8.2111	8.8587	9.5301	10.2224	10.9328	11.6584	12.3965	13.1446	13.9003	14.6616	15.4267	16.1936	
4942	3.8402	4.1811	4.5585	4.9734	5.4257	5.9150	6.4401	6.9993	7.5906	8.2113	8.8588	9.5302	10.2225	10.9329	11.6585	12.3966	13.1447	13.9004	14.6617	15.4267	16.1937	
4944	3.8408	4.1815	4.5589	4.9737	5.4260	5.9153	6.4403	6.9995	7.5907	8.2114	8.8589	9.5303	10.2226	10.9330	11.6586	12.3967	13.1447	13.9005	14.6618	15.4268	16.1938	
4946	3.8413	4.1820	4.5593	4.9740	5.4263	5.9155	6.4405	6.9997	7.5909	8.2116	8.8590	9.5304	10.2227	10.9331	11.6587	12.3968	13.1448	13.9006	14.6619	15.4269	16.1939	
4948	3.8419	4.1825	4.5597	4.9744	5.4265	5.9157	6.4407	6.9999	7.5910	8.2117	8.8592	9.5305	10.2228	10.9332	11.6588	12.3969	13.1449	13.9007	14.6620	15.4270	16.1940	
4950	3.8424	4.1829	4.5601	4.9747	5.4268	5.9159	6.4409	7.0000	7.5912	8.2118	8.8593	9.5306	10.2230	10.9333	11.6589	12.3969	13.1450	13.9008	14.6621	15.4271	16.1940	
4952	3.8430	4.1834	4.5605	4.9750	5.4271	5.9162	6.4411	7.0002	7.5913	8.2120	8.8594	9.5307	10.2231	10.9334	11.6590	12.3970	13.1451	13.9008	14.6621	15.4271	16.1941	
4954	3.8435	4.1838	4.5608	4.9753	5.4273	5.9164	6.4413	7.0004	7.5915	8.2121	8.8595	9.5308	10.2231	10.9335	11.6590	12.3971	13.1452	13.9009	14.6622	15.4272	16.1942	
4956	3.8441	4.1843	4.5612	4.9756	5.4276	5.9166	6.4415	7.0005	7.5916	8.2122	8.8596	9.5309	10.2232	10.9336	11.6591	12.3972	13.1452	13.9010	14.6623	15.4273	16.1942	
4958	3.8446	4.1847	4.5616	4.9759	5.4278	5.9168	6.4417	7.0007	7.5917	8.2123	8.8597	9.5310	10.2233	10.9337	11.6592	12.3973	13.1453	13.9011	14.6624	15.4273	16.1943	
4960	3.8451	4.1851	4.5619	4.9762	5.4281	5.9170	6.4418	7.0008	7.5919	8.2124	8.8598	9.5311	10.2234	10.9337	11.6593	12.3973	13.1454	13.9011	14.6624	15.4274	16.1943	
4962	3.8456	4.1856	4.5623	4.9765	5.4283	5.9172	6.4420	7.0010	7.5920	8.2126	8.8599	9.5312	10.2235	10.9338	11.6593	12.3974	13.1454	13.9012	14.6625	15.4274	16.1944	
4964	3.8462	4.1860	4.5626	4.9768	5.4286	5.9174	6.4422	7.0011	7.5921	8.2127	8.8600	9.5313	10.2236	10.9339	11.6594	12.3975	13.1455	13.9012	14.6625	15.4275	16.1944	
4966	3.8467	4.1864	4.5630	4.9771	5.4288	5.9176	6.4423	7.0012	7.5922	8.2128	8.8601	9.5314	10.2236	10.9340	11.6595	12.3975	13.1456	13.9013	14.6626	15.4275	16.1945	
4968	3.8472	4.1868	4.5633	4.9774	5.4290	5.9178	6.4425	7.0014	7.5923	8.2129	8.8602	9.5315	10.2237	10.9340	11.6595	12.3976	13.1456	13.9013	14.6626	15.4276	16.1945	
4970	3.8477	4.1872	4.5637	4.9776	5.4293	5.9180	6.4426	7.0015	7.5925	8.2130	8.8603	9.5315	10.2238	10.9341	11.6596	12.3976	13.1457	13.9014	14.6627	15.4276	16.1946	
4972	3.8482	4.1877	4.5640	4.9779	5.4295	5.9182	6.4428	7.0016	7.5926	8.2130	8.8604	9.5316	10.2238	10.9341	11.6596	12.3977	13.1457	13.9014	14.6627	15.4277	16.1946	
4974	3.8487	4.1881	4.5643	4.9782	5.4297	5.9184	6.4429	7.0018	7.5927	8.2131	8.8604	9.5317	10.2239	10.9342	11.6597	12.3977	13.1458	13.9015	14.6627	15.4277	16.1946	
4976	3.8492	4.1885	4.5647	4.9785	5.4299	5.9185	6.4431	7.0019	7.5928	8.2132	8.8605	9.5317	10.2240	10.9342	11.6597	12.3978	13.1458	13.9015	14.6628	15.4277	16.1947	
4978	3.8497	4.1889	4.5650	4.9787	5.4302	5.9187	6.4432	7.0020	7.5929	8.2133	8.8606	9.5318	10.2240	10.9343	11.6598	12.3978	13.1458	13.9015	14.6628	15.4278	16.1947	
4980	3.8502	4.1893	4.5653	4.9790	5.4304	5.9189	6.4434	7.0021	7.5930	8.2134	8.8606	9.5319	10.2241	10.9343	11.6598	12.3979	13.1459	13.9016	14.6628	15.4278	16.1947	
4982	3.8506	4.1897	4.5656	4.9792	5.4306	5.9191	6.4435	7.0022	7.5930	8.2135	8.8607	9.5319	10.2241	10.9344	11.6599	12.3979	13.1459	13.9016	14.6629	15.4278	16.1947	
4984	3.8511	4.1900	4.5659	4.9795	5.4308	5.9192	6.4436	7.0023	7.5931	8.2135	8.8608	9.5320	10.2242	10.9344	11.6599	12.3979	13.1459	13.9016	14.6629	15.4278	16.1948	
4986	3.8516	4.1904	4.5662	4.9797	5.4310	5.9194	6.4438	7.0024	7.5932	8.2136	8.8608	9.5320	10.2242	10.9344	11.6599	12.3979	13.1459	13.9016	14.6629	15.4278	16.1947	
4988	3.8521	4.1908	4.5665	4.9800	5.4312	5.9195	6.4439	7.0025	7.5932	8.2136	8.8608	9.5320	10.2242	10.9344	11.6599	12.3979	13.1459	13.9016	14.6629	15.4278	16.1947	
4990	3.8525	4.1912	4.5668	4.9802	5.4313	5.9197	6.4440	7.0026	7.5933	8.2136	8.8608	9.5320	10.2242	10.9344	11.6599	12.3979	13.1459	13.9016	14.6628	15.4278	16.1947	
4992	3.8530	4.1916	4.5671	4.9804	5.4315	5.9198	6.4441	7.0027	7.5934	8.2137	8.8609	9.5320	10.2242	10.9344	11.6599	12.3979	13.1459	13.9015	14.6628	15.4277	16.1947	
4994	3.8534	4.1919	4.5674	4.9807	5.4317	5.9199	6.4442	7.0027	7.5934	8.2137	8.8609	9.5320	10.2242	10.9344	11.6598	12.3978	13.1458	13.9015	14.6628	15.4277	16.1946	
4996	3.8539	4.1923	4.5677	4.9809	5.4319	5.9201	6.4443	7.0028	7.5935	8.2137	8.8609	9.5320	10.2242	10.9344	11.6598	12.3978	13.1458	13.9015	14.6627	15.4277	16.1946	
4998	3.8544	4.1926	4.5680	4.9811	5.4320	5.9202	6.4444	7.0029	7.5935	8.2138	8.8609	9.5320	10.2241	10.9343	11.6598	12.3978	13.1458	13.9014	14.6627	15.4276	16.1945	
5000	3.8548	4.1930	4.5683	4.9813	5.4322	5.9203	6.4445	7.0029	7.5935	8.2138	8.8609	9.5320	10.2241	10.9343	11.6598	12.3977	13.1457	13.9014	14.6627	15.4276	16.1945	
5002	3.8552	4.1934	4.5686	4.9816	5.4324	5.9204	6.4445	7.0030	7.5936	8.2138	8.8609	9.5320	10.2241	10.9343	11.6597	12.3977	13.1457	13.9014	14.6626	15.4275	16.1945	
5004	3.8557	4.1937	4.5688	4.9818	5.4325	5.9206	6.4446	7.0030	7.5936	8.2138	8.8609	9.5320	10.2241	10.9343	11.6597	12.3977	13.1457	13.9013	14.6626	15.4275	16.1944	
5006	3.8561	4.1941	4.5691	4.9820	5.4327	5.9207	6.4447	7.0031	7.5936	8.2138	8.8609	9.5320	10.2241	10.9342	11.6597	12.3976	13.1456	13.9013	14.6625	15.4274	16.1944	
5008	3.8566	4.1944	4.5694	4.9822	5.4329	5.9208	6.4448	7.0031	7.5937	8.2138	8.8609	9.5320	10.2240	10.9342	11.6596	12.3976	13.1456	13.9012	14.6625	15.4274	16.1943	
5010	3.8570	4.1947	4.5696	4.9824	5.4330	5.9209	6.4449	7.0032	7.5937	8.2138	8.8609	9.5319	10.2240	10.9342	11.6596	12.3975	13.1455	13.9012	14.6624	15.4273	16.1942	
5012	3.8574	4.1951	4.5699	4.9826	5.4332	5.9210	6.4449	7.0032	7.5937	8.2138	8.8609	9.5319	10.2240	10.9341	11.6595	12.3975	13.1455	13.9011	14.6624	15.4273	16.1942	
5014	3.8578	4.1954	4.5702	4.9828	5.4333	5.9211	6.4450	7.0033	7.5937	8.2138	8.8609	9.5319	10.2239	10.9341	11.6595	12.3974	13.1454	13.9011	14.6623	15.4272	16.1941	
5016	3.8582	4.1957	4.5704	4.9830	5.4334	5.9212	6.4451	7.0033	7.5937	8.2138	8.8608	9.5319	10.2239	10.9340	11.6594	12.3974	13.1453	13.9010	14.6622	15.4272	16.1941	
5018	3.8587	4.1961	4.5707	4.9832	5.4336	5.9213	6.4451	7.0033	7.5937	8.2138	8.8608	9.5318	10.2239	10.9340	11.6594	12.3973	13.1453	13.9009	14.6622	15.4271	16.1940	
5020	3.8591	4.1964	4.5709	4.9834	5.4337	5.9214	6.4452	7.0034	7.5938	8.2138	8.8608	9.5318	10.2238	10.9339	11.6593	12.3973	13.1452	13.9009	14.6621	15.4270	16.1939	
5022	3.8595	4.1967	4.5712	4.9835	5.4338	5.9215	6.4452	7.0034	7.5938	8.2138	8.8608	9.5317	10.2238	10.9339	11.6593	12.3972	13.1452	13.9008	14.6620	15.4270	16.1939	
5024	3.8599	4.1970	4.5714	4.9837	5.4340	5.9216	6.4453	7.0034	7.5938	8.2138	8.8607	9.5317	10.2237	10.9338	11.6592	12.3971	13.1451	13.9007	14.6620	15.4269	16.1938	
5026	3.8603	4.1973	4.5716	4.9839	5.4341	5.9217	6.4454	7.0034	7.5938	8.2138	8.8607	9.5317	10.2237	10.9338	11.6591	12.3971	13.1450	13.9007	14.6619	15.4268	16.1937	
5028	3.8607	4.1976	4.5719	4.9841	5.4342	5.9217	6.4454	7.0035	7.5938	8.2138	8.8607	9.5316	10.2236	10.9337	11.6591	12.3970	13.1449	13.9006	14.6618	15.4267	16.1936	
5030	3.8611	4.1979	4.5721	4.9842	5.4343	5.9218	6.4454	7.0035	7.5938	8.2137	8.8606	9.5316	10.2236	10.9336	11.6590	12.3969	13.1449	13.9005	14.6617	15.4266	16.1936	
5032	3.8615	4.1982	4.5723	4.9844	5.4345	5.9219	6.4455	7.0035	7.5937	8.2137	8.8606	9.5315	10.2235	10.9336	11.6589	12.3969	13.1448	13.9004	14.6617	15.4266	16.1935	
5034	3.8619	4.1985	4.5726	4.9846	5.4346	5.9220	6.4455	7.0035	7.5937	8.2137	8.8606	9.5315	10.2234	10.9335	11.6589	12.3968	13.1447	13.9003	14.6616	15.4265	16.1934	
5036	3.8623	4.1988	4.5728	4.9847	5.4347	5.9220	6.4456	7.0035	7.5937	8.2136	8.8605	9.5314	10.2234	10.9334	11.6588	12.3967	13.1446	13.9003	14.6615	15.4264	16.1933	
5038	3.8626	4.1991	4.5730	4.9849	5.4348	5.9221	6.4456	7.0035	7.5937	8.2136	8.8605	9.5313	10.2233	10.9334	11.6587	12.3966	13.1445	13.9002	14.6614	15.4263	16.1932	
5040	3.8630	4.1994	4.5732	4.9851	5.4349	5.9222	6.4456	7.0035	7.5937	8.2136	8.8604	9.5313	10.2232	10.9333	11.6586	12.3965	13.1445	13.9001	14.6613	15.4262	16.1931	
5042	3.8634	4.1997	4.5734	4.9852	5.4350	5.9222	6.4457	7.0035	7.5937	8.2135	8.8604	9.5312	10.2232	10.9332	11.6585	12.3964	13.1444	13.9000	14.6612	15.4261	16.1930	
5044	3.8638	4.2000	4.5737	4.9854	5.4351	5.9223	6.4457	7.0035	7.5936	8.2135	8.8603	9.5312	10.2231	10.9331	11.6585	12.3963	13.1443	13.8999	14.6611	15.4260	16.1929	
5046	3.8641	4.2003	4.5739	4.9855	5.4352	5.9223	6.4457	7.0035	7.5936	8.2135	8.8602	9.5311	10.2230	10.9330	11.6584	12.3963	13.1442	13.8998	14.6610	15.4259	16.1928	
5048	3.8645	4.2006	4.5741	4.9856	5.4353	5.9224	6.4457	7.0035	7.5936	8.2134	8.8602	9.5310	10.2229	10.9330	11.6583	12.3962	13.1441	13.8997	14.6609	15.4258	16.1927	
5050	3.8649	4.2008	4.5743	4.9858	5.4354	5.9225	6.4457	7.0035	7.5936	8.2134	8.8601	9.5309	10.2228	10.9329	11.6582	12.3961	13.1440	13.8996	14.6608	15.4257	16.1926	
5052	3.8652	4.2011	4.5745	4.9859	5.4355	5.9225	6.4458	7.0035	7.5935	8.2133	8.8601	9.5309	10.2228	10.9328	11.6581	12.3960	13.1439	13.8995	14.6607	15.4256	16.1925	
5054	3.8656	4.2014	4.5747	4.9861	5.4356	5.9225	6.4458	7.0035	7.5935	8.2132	8.8600	9.5308	10.2227	10.9327	11.6580	12.3959	13.1438	13.8994	14.6606	15.4255	16.1924	
5056	3.8659	4.2016	4.5749	4.9862	5.4357	5.9226	6.4458	7.0035	7.5934	8.2132	8.8599	9.5307	10.2226	10.9326	11.6579	12.3958	13.1437	13.8993	14.6605	15.4254	16.1923	
5058	3.8663	4.2019	4.5750	4.9863	5.4357	5.9226	6.4458	7.0034	7.5934	8.2131	8.8598	9.5306	10.2225	10.9325	11.6578	12.3956	13.1436	13.8992	14.6604	15.4253	16.1922	
5060	3.8666	4.2022	4.5752	4.9865	5.4358	5.9227	6.4458	7.0034	7.5934	8.2131	8.8598	9.5305	10.2224	10.9324	11.6577	12.3955	13.1434	13.8991	14.6603	15.4252	16.1921	
5062	3.8670	4.2024	4.5754	4.9866	5.4359	5.9227	6.4458	7.0034	7.5933	8.2130	8.8597	9.5304	10.2223	10.9323	11.6576	12.3954	13.1433	13.8989	14.6602	15.4251	16.1920	
5064	3.8673	4.2027	4.5756	4.9867	5.4360	5.9227	6.4458	7.0034	7.5933	8.2129	8.8596	9.5304	10.2222	10.9322	11.6575	12.3953	13.1432	13.8988	14.6600	15.4249	16.1919	
5066	3.8676	4.2029	4.5758	4.9868	5.4360	5.9228	6.4458	7.0033	7.5932	8.2129	8.8595	9.5303	10.2221	10.9321	11.6573	12.3952	13.1431	13.8987	14.6599	15.4248	16.1917	
5068	3.8680	4.2032	4.5760	4.9869	5.4361	5.9228	6.4458	7.0033	7.5932	8.2128	8.8594	9.5302	10.2220	10.9320	11.6572	12.3951	13.1430	13.8986	14.6598	15.4247	16.1916	
5070	3.8683	4.2034	4.5761	4.9870	5.4362	5.9228	6.4458	7.0033	7.5931	8.2127	8.8594	9.5301	10.2219	10.9318	11.6571	12.3950	13.1429	13.8985	14.6597	15.4246	16.1915	
5072	3.8686	4.2037	4.5763	4.9872	5.4362	5.9228	6.4458	7.0032	7.5930	8.2127	8.8593	9.5300	10.2218	10.9317	11.6570	12.3948	13.1427	13.8983	14.6595	15.4245	16.1914	
5074	3.8690	4.2039	4.5765	4.9873	5.4363	5.9229	6.4458	7.0032	7.5930	8.2126	8.8592	9.5299	10.2217	10.9316	11.6569	12.3947	13.1426	13.8982	14.6594	15.4243	16.1912	
5076	3.8693	4.2041	4.5766	4.9874	5.4363	5.9229	6.4457	7.0032	7.5929	8.2125	8.8591	9.5298	10.2216	10.9315	11.6568	12.3946	13.1425	13.8981	14.6593	15.4242	16.1911	
5078	3.8696	4.2044	4.5768	4.9875	5.4364	5.9229	6.4457	7.0031	7.5929	8.2124	8.8590	9.5297	10.2214	10.9314	11.6566	12.3945	13.1423	13.8980	14.6592	15.4241	16.1910	
5080	3.8699	4.2046	4.5769	4.9876	5.4364	5.9229	6.4457	7.0031	7.5928	8.2123	8.8589	9.5295	10.2213	10.9313	11.6565	12.3943	13.1422	13.8978	14.6590	15.4239	16.1909	
5082	3.8702	4.2048	4.5771	4.9877	5.4365	5.9229	6.4457	7.0030	7.5927	8.2122	8.8588	9.5294	10.2212	10.9311	11.6564	12.3942	13.1421	13.8977	14.6589	15.4238	16.1907	
5084	3.8705	4.2050	4.5773	4.9878	5.4365	5.9229	6.4457	7.0030	7.5926	8.2121	8.8587	9.5293	10.2211	10.9310	11.6562	12.3941	13.1419	13.8975	14.6588	15.4237	16.1906	
5086	3.8708	4.2053	4.5774	4.9879	5.4366	5.9229	6.4456	7.0029	7.5926	8.2121	8.8586	9.5292	10.2210	10.9309	11.6561	12.3939	13.1418	13.8974	14.6586	15.4235	16.1904	
5088	3.8711	4.2055	4.5776	4.9880	5.4366	5.9229	6.4456	7.0029	7.5925	8.2120	8.8585	9.5291	10.2208	10.9307	11.6560	12.3938	13.1417	13.8973	14.6585	15.4234	16.1903	
5090	3.8715	4.2057	4.5777	4.9880	5.4367	5.9229	6.4456	7.0028	7.5924	8.2119	8.8584	9.5290	10.2207	10.9306	11.6558	12.3937	13.1415	13.8971	14.6583	15.4232	16.1902	
5092	3.8717	4.2059	4.5778	4.9881	5.4367	5.9229	6.4455	7.0027	7.5923	8.2118	8.8583	9.5288	10.2206	10.9305	11.6557	12.3935	13.1414	13.8970	14.6582	15.4231	16.1900	
5094	3.8720	4.2061	4.5780	4.9882	5.4367	5.9229	6.4455	7.0027	7.5923	8.2117	8.8581	9.5287	10.2204	10.9303	11.6556	12.3934	13.1412	13.8968	14.6580	15.4229	16.1899	
5096	3.8723	4.2063	4.5781	4.9883	5.4368	5.9229	6.4455	7.0026	7.5922	8.2116	8.8580	9.5286	10.2203	10.9302	11.6554	12.3932	13.1411	13.8967	14.6579	15.4228	16.1897	
5098	3.8726	4.2065	4.5783	4.9884	5.4368	5.9229	6.4454	7.0025	7.5921	8.2115	8.8579	9.5285	10.2202	10.9301	11.6553	12.3931	13.1409	13.8965	14.6577	15.4226	16.1896	
5100	3.8729	4.2067	4.5784	4.9884	5.4368	5.9229	6.4454	7.0025	7.5920	8.2114	8.8578	9.5283	10.2200	10.9299	11.6551	12.3929	13.1408	13.8964	14.6576	15.4225	16.1894	
5102	3.8732	4.2069	4.5785	4.9885	5.4369	5.9229	6.4453	7.0024	7.5919	8.2113	8.8577	9.5282	10.2199	10.9298	11.6550	12.3928	13.1406	13.8962	14.6574	15.4223	16.1893	
5104	3.8735	4.2071	4.5787	4.9886	5.4369	5.9229	6.4453	7.0023	7.5918	8.2111	8.8575	9.5281	10.2198	10.9296	11.6548	12.3926	13.1405	13.8961	14.6573	15.4222	16.1891	
5106	3.8738	4.2073	4.5788	4.9887	5.4369	5.9229	6.4452	7.0023	7.5917	8.2110	8.8574	9.5279	10.2196	10.9295	11.6547	12.3925	13.1403	13.8959	14.6571	15.4220	16.1890	
5108	3.8740	4.2075	4.5789	4.9887	5.4369	5.9228	6.4452	7.0022	7.5916	8.2109	8.8573	9.5278	10.2195	10.9293	11.6545	12.3923	13.1402	13.8958	14.6570	15.4219	16.1888	
5110	3.8743	4.2077	4.5790	4.9888	5.4370	5.9228	6.4451	7.0021	7.5915	8.2108	8.8572	9.5277	10.2193	10.9292	11.6544	12.3921	13.1400	13.8956	14.6568	15.4217	16.1887	
5112	3.8746	4.2079	4.5792	4.9889	5.4370	5.9228	6.4451	7.0020	7.5914	8.2107	8.8570	9.5275	10.2192	10.9290	11.6542	12.3920	13.1398	13.8954	14.6566	15.4216	16.1885	
5114	3.8749	4.2081	4.5793	4.9889	5.4370	5.9228	6.4450	7.0019	7.5913	8.2106	8.8569	9.5274	10.2190	10.9289	11.6540	12.3918	13.1397	13.8953	14.6565	15.4214	16.1883	
5116	3.8751	4.2083	4.5794	4.9890	5.4370	5.9227	6.4450	7.0019	7.5912	8.2104	8.8568	9.5272	10.2189	10.9287	11.6539	12.3917	13.1395	13.8951	14.6563	15.4212	16.1882	
5118	3.8754	4.2085	4.5795	4.9890	5.4370	5.9227	6.4449	7.0018	7.5911	8.2103	8.8566	9.5271	10.2187	10.9286	11.6537	12.3915	13.1394	13.8949	14.6561	15.4211	16.1880	
5120	3.8756	4.2086	4.5796	4.9891	5.4370	5.9227	6.4448	7.0017	7.5910	8.2102	8.8565	9.5270	10.2186	10.9284	11.6536	12.3913	13.1392	13.8948	14.6560	15.4209	16.1878	
5122	3.8759	4.2088	4.5797	4.9891	5.4370	5.9227	6.4448	7.0016	7.5909	8.2101	8.8564	9.5268	10.2184	10.9282	11.6534	12.3912	13.1390	13.8946	14.6558	15.4207	16.1877	
5124	3.8762	4.2090	4.5798	4.9892	5.4370	5.9226	6.4447	7.0015	7.5908	8.2099	8.8562	9.5267	10.2183	10.9281	11.6532	12.3910	13.1388	13.8944	14.6556	15.4206	16.1875	
5126	3.8764	4.2092	4.5799	4.9892	5.4370	5.9226	6.4446	7.0014	7.5907	8.2098	8.8561	9.5265	10.2181	10.9279	11.6531	12.3908	13.1387	13.8943	14.6555	15.4204	16.1873	
5128	3.8767	4.2093	4.5800	4.9893	5.4370	5.9225	6.4446	7.0013	7.5905	8.2097	8.8559	9.5263	10.2179	10.9277	11.6529	12.3907	13.1385	13.8941	14.6553	15.4202	16.1872	
5130	3.8769	4.2095	4.5801	4.9893	5.4370	5.9225	6.4445	7.0012	7.5904	8.2095	8.8558	9.5262	10.2178	10.9276	11.6527	12.3905	13.1383	13.8939	14.6551	15.4200	16.1870	
5132	3.8771	4.2097	4.5802	4.9894	5.4370	5.9225	6.4444	7.0011	7.5903	8.2094	8.8556	9.5260	10.2176	10.9274	11.6525	12.3903	13.1381	13.8937	14.6549	15.4199	16.1868	
5134	3.8774	4.2098	4.5803	4.9894	5.4370	5.9224	6.4444	7.0010	7.5902	8.2093	8.8555	9.5259	10.2174	10.9272	11.6524	12.3901	13.1380	13.8936	14.6548	15.4197	16.1866	
5136	3.8776	4.2100	4.5804	4.9894	5.4370	5.9224	6.4443	7.0009	7.5901	8.2091	8.8553	9.5257	10.2173	10.9271	11.6522	12.3899	13.1378	13.8934	14.6546	15.4195	16.1865	
5138	3.8779	4.2101	4.5805	4.9895	5.4370	5.9223	6.4442	7.0008	7.5899	8.2090	8.8552	9.5256	10.2171	10.9269	11.6520	12.3898	13.1376	13.8932	14.6544	15.4193	16.1863	
5140	3.8781	4.2103	4.5806	4.9895	5.4370	5.9223	6.4441	7.0007	7.5898	8.2089	8.8550	9.5254	10.2169	10.9267	11.6518	12.3896	13.1374	13.8930	14.6542	15.4191	16.1861	
5142	3.8783	4.2104	4.5807	4.9895	5.4370	5.9222	6.4440	7.0006	7.5897	8.2087	8.8549	9.5252	10.2168	10.9265	11.6517	12.3894	13.1372	13.8928	14.6540	15.4190	16.1859	
5144	3.8786	4.2106	4.5807	4.9896	5.4369	5.9222	6.4439	7.0005	7.5896	8.2086	8.8547	9.5251	10.2166	10.9264	11.6515	12.3892	13.1371	13.8926	14.6538	15.4188	16.1857	
5146	3.8788	4.2107	4.5808	4.9896	5.4369	5.9221	6.4439	7.0004	7.5894	8.2084	8.8546	9.5249	10.2164	10.9262	11.6513	12.3890	13.1369	13.8924	14.6537	15.4186	16.1856	
5148	3.8790	4.2109	4.5809	4.9896	5.4369	5.9220	6.4438	7.0003	7.5893	8.2083	8.8544	9.5247	10.2162	10.9260	11.6511	12.3888	13.1367	13.8923	14.6535	15.4184	16.1854	
5150	3.8792	4.2110	4.5810	4.9896	5.4369	5.9220	6.4437	7.0002	7.5892	8.2081	8.8542	9.5246	10.2161	10.9258	11.6509	12.3887	13.1365	13.8921	14.6533	15.4182	16.1852	
5152	3.8795	4.2112	4.5811	4.9897	5.4368	5.9219	6.4436	7.0000	7.5890	8.2080	8.8541	9.5244	10.2159	10.9256	11.6507	12.3885	13.1363	13.8919	14.6531	15.4180	16.1850	
5154	3.8797	4.2113	4.5811	4.9897	5.4368	5.9219	6.4435	6.9999	7.5889	8.2078	8.8539	9.5242	10.2157	10.9254	11.6505	12.3883	13.1361	13.8917	14.6529	15.4178	16.1848	
5156	3.8799	4.2114	4.5812	4.9897	5.4368	5.9218	6.4434	6.9998	7.5888	8.2077	8.8538	9.5240	10.2155	10.9253	11.6504	12.3881	13.1359	13.8915	14.6527	15.4176	16.1846	
5158	3.8801	4.2116	4.5813	4.9897	5.4368	5.9217	6.4433	6.9997	7.5886	8.2075	8.8536	9.5239	10.2153	10.9251	11.6502	12.3879	13.1357	13.8913	14.6525	15.4174	16.1844	
5160	3.8803	4.2117	4.5813	4.9897	5.4367	5.9217	6.4432	6.9996	7.5885	8.2074	8.8534	9.5237	10.2152	10.9249	11.6500	12.3877	13.1355	13.8911	14.6523	15.4173	16.1842	
5162	3.8805	4.2118	4.5814	4.9897	5.4367	5.9216	6.4431	6.9994	7.5883	8.2072	8.8532	9.5235	10.2150	10.9247	11.6498	12.3875	13.1353	13.8909	14.6521	15.4171	16.1840	
5164	3.8807	4.2120	4.5815	4.9897	5.4367	5.9215	6.4430	6.9993	7.5882	8.2070	8.8531	9.5233	10.2148	10.9245	11.6496	12.3873	13.1351	13.8907	14.6519	15.4169	16.1838	
5166	3.8809	4.2121	4.5815	4.9897	5.4366	5.9215	6.4429	6.9992	7.5880	8.2069	8.8529	9.5231	10.2146	10.9243	11.6494	12.3871	13.1349	13.8905	14.6517	15.4167	16.1837	
5168	3.8811	4.2122	4.5816	4.9898	5.4366	5.9214	6.4428	6.9991	7.5879	8.2067	8.8527	9.5230	10.2144	10.9241	11.6492	12.3869	13.1347	13.8903	14.6515	15.4165	16.1835	
5170	3.8813	4.2123	4.5816	4.9898	5.4366	5.9213	6.4427	6.9989	7.5877	8.2066	8.8526	9.5228	10.2142	10.9239	11.6490	12.3867	13.1345	13.8901	14.6513	15.4163	16.1833	
5172	3.8815	4.2125	4.5817	4.9898	5.4365	5.9212	6.4426	6.9988	7.5876	8.2064	8.8524	9.5226	10.2140	10.9237	11.6488	12.3865	13.1343	13.8899	14.6511	15.4161	16.1831	
5174	3.8817	4.2126	4.5818	4.9898	5.4365	5.9212	6.4425	6.9987	7.5875	8.2062	8.8522	9.5224	10.2138	10.9235	11.6486	12.3863	13.1341	13.8897	14.6509	15.4159	16.1829	
5176	3.8819	4.2127	4.5818	4.9898	5.4364	5.9211	6.4424	6.9985	7.5873	8.2061	8.8520	9.5222	10.2136	10.9233	11.6484	12.3861	13.1339	13.8895	14.6507	15.4157	16.1827	
5178	3.8821	4.2128	4.5819	4.9898	5.4364	5.9210	6.4423	6.9984	7.5871	8.2059	8.8518	9.5220	10.2134	10.9231	11.6482	12.3859	13.1337	13.8893	14.6505	15.4155	16.1825	
5180	3.8823	4.2129	4.5819	4.9898	5.4363	5.9209	6.4422	6.9983	7.5870	8.2057	8.8517	9.5218	10.2132	10.9229	11.6480	12.3857	13.1335	13.8891	14.6503	15.4153	16.1823	
5182	3.8825	4.2130	4.5820	4.9898	5.4363	5.9208	6.4420	6.9981	7.5868	8.2056	8.8515	9.5216	10.2131	10.9227	11.6478	12.3855	13.1333	13.8889	14.6501	15.4151	16.1821	
5184	3.8827	4.2131	4.5820	4.9897	5.4362	5.9207	6.4419	6.9980	7.5867	8.2054	8.8513	9.5215	10.2129	10.9225	11.6476	12.3853	13.1331	13.8887	14.6499	15.4148	16.1818	
5186	3.8829	4.2132	4.5820	4.9897	5.4362	5.9207	6.4418	6.9979	7.5865	8.2052	8.8511	9.5213	10.2127	10.9223	11.6474	12.3851	13.1329	13.8885	14.6497	15.4146	16.1816	
5188	3.8830	4.2133	4.5821	4.9897	5.4361	5.9206	6.4417	6.9977	7.5864	8.2050	8.8509	9.5211	10.2125	10.9221	11.6472	12.3849	13.1327	13.8883	14.6495	15.4144	16.1814	
5190	3.8832	4.2134	4.5821	4.9897	5.4361	5.9205	6.4416	6.9976	7.5862	8.2049	8.8507	9.5209	10.2123	10.9219	11.6469	12.3846	13.1325	13.8880	14.6493	15.4142	16.1812	
5192	3.8834	4.2135	4.5822	4.9897	5.4360	5.9204	6.4415	6.9974	7.5860	8.2047	8.8506	9.5207	10.2120	10.9217	11.6467	12.3844	13.1322	13.8878	14.6491	15.4140	16.1810	
5194	3.8836	4.2136	4.5822	4.9897	5.4360	5.9203	6.4413	6.9973	7.5859	8.2045	8.8504	9.5205	10.2118	10.9215	11.6465	12.3842	13.1320	13.8876	14.6488	15.4138	16.1808	
5196	3.8837	4.2137	4.5822	4.9897	5.4359	5.9202	6.4412	6.9971	7.5857	8.2043	8.8502	9.5203	10.2116	10.9213	11.6463	12.3840	13.1318	13.8874	14.6486	15.4136	16.1806	
5198	3.8839	4.2138	4.5823	4.9896	5.4358	5.9201	6.4411	6.9970	7.5856	8.2042	8.8500	9.5201	10.2114	10.9211	11.6461	12.3838	13.1316	13.8872	14.6484	15.4134	16.1804	
5200	3.8841	4.2139	4.5823	4.9896	5.4358	5.9200	6.4410	6.9969	7.5854	8.2040	8.8498	9.5199	10.2112	10.9209	11.6459	12.3836	13.1314	13.8870	14.6482	15.4132	16.1802	
5202	3.8842	4.2140	4.5823	4.9896	5.4357	5.9199	6.4409	6.9967	7.5852	8.2038	8.8496	9.5197	10.2110	10.9206	11.6457	12.3834	13.1312	13.8868	14.6480	15.4130	16.1800	
5204	3.8844	4.2141	4.5824	4.9896	5.4357	5.9198	6.4407	6.9966	7.5851	8.2036	8.8494	9.5195	10.2108	10.9204	11.6455	12.3831	13.1310	13.8865	14.6478	15.4127	16.1798	
5206	3.8846	4.2142	4.5824	4.9896	5.4356	5.9197	6.4406	6.9964	7.5849	8.2034	8.8492	9.5193	10.2106	10.9202	11.6452	12.3829	13.1307	13.8863	14.6475	15.4125	16.1795	
5208	3.8847	4.2143	4.5824	4.9895	5.4355	5.9196	6.4405	6.9963	7.5847	8.2032	8.8490	9.5191	10.2104	10.9200	11.6450	12.3827	13.1305	13.8861	14.6473	15.4123	16.1793	
5210	3.8849	4.2144	4.5824	4.9895	5.4355	5.9195	6.4403	6.9961	7.5845	8.2031	8.8488	9.5189	10.2102	10.9198	11.6448	12.3825	13.1303	13.8859	14.6471	15.4121	16.1791	
5212	3.8851	4.2145	4.5825	4.9895	5.4354	5.9194	6.4402	6.9960	7.5844	8.2029	8.8486	9.5187	10.2100	10.9196	11.6446	12.3823	13.1301	13.8857	14.6469	15.4119	16.1789	
5214	3.8852	4.2145	4.5825	4.9895	5.4353	5.9193	6.4401	6.9958	7.5842	8.2027	8.8484	9.5185	10.2098	10.9194	11.6444	12.3820	13.1299	13.8854	14.6467	15.4117	16.1787	
5216	3.8854	4.2146	4.5825	4.9894	5.4352	5.9192	6.4399	6.9956	7.5840	8.2025	8.8482	9.5183	10.2095	10.9191	11.6441	12.3818	13.1296	13.8852	14.6465	15.4114	16.1785	
5218	3.8855	4.2147	4.5825	4.9894	5.4352	5.9191	6.4398	6.9955	7.5839	8.2023	8.8480	9.5180	10.2093	10.9189	11.6439	12.3816	13.1294	13.8850	14.6462	15.4112	16.1783	
5220	3.8857	4.2148	4.5825	4.9894	5.4351	5.9190	6.4397	6.9953	7.5837	8.2021	8.8478	9.5178	10.2091	10.9187	11.6437	12.3814	13.1292	13.8848	14.6460	15.4110	16.1780	
5222	3.8858	4.2148	4.5825	4.9893	5.4350	5.9189	6.4395	6.9952	7.5835	8.2019	8.8476	9.5176	10.2089	10.9185	11.6435	12.3812	13.1290	13.8845	14.6458	15.4108	16.1778	
5224	3.8859	4.2149	4.5826	4.9893	5.4349	5.9188	6.4394	6.9950	7.5833	8.2017	8.8474	9.5174	10.2087	10.9183	11.6433	12.3809	13.1287	13.8843	14.6456	15.4106	16.1776	
5226	3.8861	4.2150	4.5826	4.9892	5.4349	5.9187	6.4393	6.9948	7.5831	8.2016	8.8472	9.5172	10.2085	10.9180	11.6430	12.3807	13.1285	13.8841	14.6453	15.4103	16.1774	
5228	3.8862	4.2151	4.5826	4.9892	5.4348	5.9185	6.4391	6.9947	7.5830	8.2014	8.8470	9.5170	10.2083	10.9178	11.6428	12.3805	13.1283	13.8839	14.6451	15.4101	16.1772	
5230	3.8864	4.2151	4.5826	4.9892	5.4347	5.9184	6.4390	6.9945	7.5828	8.2012	8.8468	9.5168	10.2080	10.9176	11.6426	12.3803	13.1281	13.8836	14.6449	15.4099	16.1769	
5232	3.8865	4.2152	4.5826	4.9891	5.4346	5.9183	6.4388	6.9944	7.5826	8.2010	8.8466	9.5166	10.2078	10.9174	11.6424	12.3800	13.1278	13.8834	14.6447	15.4097	16.1767	
5234	3.8866	4.2153	4.5826	4.9891	5.4345	5.9182	6.4387	6.9942	7.5824	8.2008	8.8464	9.5164	10.2076	10.9172	11.6421	12.3798	13.1276	13.8832	14.6444	15.4094	16.1765	
5236	3.8868	4.2153	4.5826	4.9890	5.4345	5.9181	6.4386	6.9940	7.5822	8.2006	8.8462	9.5161	10.2074	10.9169	11.6419	12.3796	13.1274	13.8830	14.6442	15.4092	16.1763	
5238	3.8869	4.2154	4.5826	4.9890	5.4344	5.9180	6.4384	6.9939	7.5821	8.2004	8.8460	9.5159	10.2072	10.9167	11.6417	12.3793	13.1271	13.8827	14.6440	15.4090	16.1761	
5240	3.8870	4.2154	4.5826	4.9890	5.4343	5.9178	6.4383	6.9937	7.5819	8.2002	8.8458	9.5157	10.2069	10.9165	11.6415	12.3791	13.1269	13.8825	14.6438	15.4088	16.1758	
5242	3.8872	4.2155	4.5826	4.9889	5.4342	5.9177	6.4381	6.9935	7.5817	8.2000	8.8456	9.5155	10.2067	10.9163	11.6412	12.3789	13.1267	13.8823	14.6435	15.4085	16.1756	
5244	3.8873	4.2156	4.5826	4.9889	5.4341	5.9176	6.4380	6.9934	7.5815	8.1998	8.8454	9.5153	10.2065	10.9160	11.6410	12.3787	13.1265	13.8821	14.6433	15.4083	16.1754	
5246	3.8874	4.2156	4.5826	4.9888	5.4340	5.9175	6.4378	6.9932	7.5813	8.1996	8.8452	9.5151	10.2063	10.9158	11.6408	12.3784	13.1262	13.8818	14.6431	15.4081	16.1752	
5248	3.8875	4.2157	4.5826	4.9888	5.4339	5.9174	6.4377	6.9930	7.5811	8.1994	8.8450	9.5148	10.2060	10.9156	11.6405	12.3782	13.1260	13.8816	14.6428	15.4079	16.1749	
5250	3.8877	4.2157	4.5826	4.9887	5.4339	5.9172	6.4375	6.9929	7.5810	8.1992	8.8447	9.5146	10.2058	10.9153	11.6403	12.3780	13.1258	13.8814	14.6426	15.4076	16.1747	
5252	3.8878	4.2158	4.5826	4.9887	5.4338	5.9171	6.4374	6.9927	7.5808	8.1990	8.8445	9.5144	10.2056	10.9151	11.6401	12.3777	13.1255	13.8811	14.6424	15.4074	16.1745	
5254	3.8879	4.2158	4.5826	4.9886	5.4337	5.9170	6.4372	6.9925	7.5806	8.1988	8.8443	9.5142	10.2054	10.9149	11.6398	12.3775	13.1253	13.8809	14.6422	15.4072	16.1743	
5256	3.8880	4.2159	4.5826	4.9885	5.4336	5.9169	6.4371	6.9924	7.5804	8.1986	8.8441	9.5140	10.2051	10.9147	11.6396	12.3773	13.1251	13.8807	14.6419	15.4069	16.1740	
5258	3.8881	4.2159	4.5826	4.9885	5.4335	5.9168	6.4369	6.9922	7.5802	8.1984	8.8439	9.5138	10.2049	10.9144	11.6394	12.3770	13.1248	13.8804	14.6417	15.4067	16.1738	
5260	3.8883	4.2160	4.5826	4.9884	5.4334	5.9166	6.4368	6.9920	7.5800	8.1982	8.8437	9.5135	10.2047	10.9142	11.6391	12.3768	13.1246	13.8802	14.6415	15.4065	16.1736	
5262	3.8884	4.2160	4.5825	4.9884	5.4333	5.9165	6.4366	6.9918	7.5798	8.1980	8.8435	9.5133	10.2044	10.9139	11.6389	12.3765	13.1243	13.8799	14.6412	15.4062	16.1733	
5264	3.8885	4.2160	4.5825	4.9883	5.4332	5.9164	6.4365	6.9916	7.5796	8.1978	8.8432	9.5131	10.2042	10.9137	11.6386	12.3763	13.1241	13.8797	14.6409	15.4060	16.1731	
5266	3.8886	4.2161	4.5825	4.9882	5.4331	5.9162	6.4363	6.9915	7.5794	8.1975	8.8430	9.5128	10.2040	10.9134	11.6384	12.3760	13.1238	13.8794	14.6407	15.4057	16.1728	
5268	3.8887	4.2161	4.5825	4.9882	5.4330	5.9161	6.4361	6.9913	7.5792	8.1973	8.8428	9.5126	10.2037	10.9132	11.6381	12.3758	13.1236	13.8792	14.6404	15.4055	16.1726	
5270	3.8888	4.2162	4.5825	4.9881	5.4329	5.9160	6.4360	6.9911	7.5790	8.1971	8.8425	9.5123	10.2035	10.9129	11.6379	12.3755	13.1233	13.8789	14.6402	15.4052	16.1723	
5272	3.8889	4.2162	4.5825	4.9881	5.4328	5.9158	6.4358	6.9909	7.5788	8.1969	8.8423	9.5121	10.2032	10.9127	11.6376	12.3753	13.1231	13.8787	14.6399	15.4050	16.1721	
5274	3.8890	4.2162	4.5824	4.9880	5.4327	5.9157	6.4357	6.9907	7.5786	8.1967	8.8421	9.5119	10.2030	10.9124	11.6374	12.3750	13.1228	13.8784	14.6397	15.4047	16.1718	
5276	3.8891	4.2163	4.5824	4.9879	5.4326	5.9155	6.4355	6.9905	7.5784	8.1965	8.8419	9.5116	10.2027	10.9122	11.6371	12.3747	13.1225	13.8781	14.6394	15.4044	16.1716	
5278	3.8892	4.2163	4.5824	4.9879	5.4325	5.9154	6.4353	6.9904	7.5782	8.1962	8.8416	9.5114	10.2025	10.9119	11.6369	12.3745	13.1223	13.8779	14.6392	15.4042	16.1713	
5280	3.8893	4.2163	4.5824	4.9878	5.4324	5.9153	6.4352	6.9902	7.5780	8.1960	8.8414	9.5112	10.2022	10.9117	11.6366	12.3742	13.1220	13.8776	14.6389	15.4039	16.1711	
5282	3.8894	4.2164	4.5823	4.9877	5.4322	5.9151	6.4350	6.9900	7.5778	8.1958	8.8412	9.5109	10.2020	10.9114	11.6364	12.3740	13.1218	13.8774	14.6386	15.4037	16.1708	
5284	3.8895	4.2164	4.5823	4.9876	5.4321	5.9150	6.4348	6.9898	7.5776	8.1956	8.8409	9.5107	10.2018	10.9112	11.6361	12.3737	13.1215	13.8771	14.6384	15.4034	16.1705	
5286	3.8896	4.2164	4.5823	4.9876	5.4320	5.9149	6.4347	6.9896	7.5774	8.1954	8.8407	9.5104	10.2015	10.9109	11.6358	12.3735	13.1213	13.8768	14.6381	15.4032	16.1703	
5288	3.8897	4.2165	4.5823	4.9875	5.4319	5.9147	6.4345	6.9894	7.5772	8.1951	8.8405	9.5102	10.2013	10.9107	11.6356	12.3732	13.1210	13.8766	14.6379	15.4029	16.1700	
5290	3.8898	4.2165	4.5822	4.9874	5.4318	5.9146	6.4343	6.9892	7.5770	8.1949	8.8403	9.5100	10.2010	10.9104	11.6353	12.3730	13.1207	13.8763	14.6376	15.4027	16.1698	
5292	3.8899	4.2165	4.5822	4.9874	5.4317	5.9144	6.4342	6.9890	7.5768	8.1947	8.8400	9.5097	10.2008	10.9102	11.6351	12.3727	13.1205	13.8761	14.6374	15.4024	16.1695	
5294	3.8900	4.2165	4.5822	4.9873	5.4316	5.9143	6.4340	6.9889	7.5766	8.1945	8.8398	9.5095	10.2005	10.9099	11.6348	12.3724	13.1202	13.8758	14.6371	15.4022	16.1693	
5296	3.8900	4.2165	4.5822	4.9872	5.4315	5.9141	6.4338	6.9887	7.5764	8.1943	8.8396	9.5092	10.2003	10.9097	11.6346	12.3722	13.1200	13.8756	14.6368	15.4019	16.1690	
5298	3.8901	4.2166	4.5821	4.9871	5.4314	5.9140	6.4337	6.9885	7.5762	8.1941	8.8393	9.5090	10.2000	10.9094	11.6343	12.3719	13.1197	13.8753	14.6366	15.4016	16.1688	
5300	3.8902	4.2166	4.5821	4.9871	5.4313	5.9139	6.4335	6.9883	7.5759	8.1938	8.8391	9.5088	10.1998	10.9092	11.6341	12.3717	13.1194	13.8750	14.6363	15.4014	16.1685	
5302	3.8903	4.2166	4.5821	4.9870	5.4311	5.9137	6.4333	6.9881	7.5757	8.1936	8.8389	9.5085	10.1995	10.9089	11.6338	12.3714	13.1192	13.8748	14.6361	15.4011	16.1683	
5304	3.8904	4.2166	4.5820	4.9869	5.4310	5.9136	6.4332	6.9879	7.5755	8.1934	8.8386	9.5083	10.1993	10.9087	11.6336	12.3712	13.1189	13.8745	14.6358	15.4009	16.1680	
5306	3.8905	4.2166	4.5820	4.9868	5.4309	5.9134	6.4330	6.9877	7.5753	8.1932	8.8384	9.5080	10.1990	10.9084	11.6333	12.3709	13.1187	13.8743	14.6356	15.4006	16.1678	
5308	3.8905	4.2167	4.5820	4.9867	5.4308	5.9133	6.4328	6.9875	7.5751	8.1930	8.8382	9.5078	10.1988	10.9082	11.6330	12.3706	13.1184	13.8740	14.6353	15.4004	16.1675	
5310	3.8906	4.2167	4.5819	4.9867	5.4307	5.9131	6.4327	6.9873	7.5749	8.1927	8.8379	9.5076	10.1986	10.9079	11.6328	12.3704	13.1182	13.8738	14.6351	15.4001	16.1673	
5312	3.8907	4.2167	4.5819	4.9866	5.4306	5.9130	6.4325	6.9872	7.5747	8.1925	8.8377	9.5073	10.1983	10.9077	11.6325	12.3701	13.1179	13.8735	14.6348	15.3999	16.1670	
5314	3.8908	4.2167	4.5818	4.9865	5.4305	5.9129	6.4323	6.9870	7.5745	8.1923	8.8375	9.5071	10.1981	10.9074	11.6323	12.3699	13.1176	13.8732	14.6345	15.3996	16.1668	
5316	3.8908	4.2167	4.5818	4.9864	5.4303	5.9127	6.4321	6.9868	7.5743	8.1921	8.8373	9.5068	10.1978	10.9072	11.6320	12.3696	13.1174	13.8730	14.6343	15.3994	16.1665	
5318	3.8909	4.2167	4.5818	4.9863	5.4302	5.9126	6.4320	6.9866	7.5741	8.1919	8.8370	9.5066	10.1976	10.9069	11.6318	12.3694	13.1171	13.8727	14.6340	15.3991	16.1663	
5320	3.8910	4.2167	4.5817	4.9863	5.4301	5.9124	6.4318	6.9864	7.5739	8.1916	8.8368	9.5064	10.1973	10.9067	11.6315	12.3691	13.1169	13.8725	14.6338	15.3989	16.1660	
5322	3.8910	4.2167	4.5817	4.9862	5.4300	5.9123	6.4316	6.9862	7.5737	8.1914	8.8366	9.5061	10.1971	10.9064	11.6313	12.3689	13.1166	13.8722	14.6335	15.3986	16.1658	
5324	3.8911	4.2168	4.5816	4.9861	5.4299	5.9121	6.4315	6.9860	7.5735	8.1912	8.8363	9.5059	10.1968	10.9062	11.6310	12.3686	13.1164	13.8720	14.6333	15.3984	16.1655	
5326	3.8912	4.2168	4.5816	4.9860	5.4297	5.9120	6.4313	6.9858	7.5733	8.1910	8.8361	9.5056	10.1966	10.9059	11.6308	12.3683	13.1161	13.8717	14.6330	15.3981	16.1653	
5328	3.8913	4.2168	4.5815	4.9859	5.4296	5.9118	6.4311	6.9856	7.5731	8.1907	8.8359	9.5054	10.1963	10.9057	11.6305	12.3681	13.1159	13.8715	14.6328	15.3978	16.1650	
5330	3.8913	4.2168	4.5815	4.9858	5.4295	5.9117	6.4309	6.9854	7.5728	8.1905	8.8356	9.5052	10.1961	10.9054	11.6303	12.3678	13.1156	13.8712	14.6325	15.3976	16.1648	
5332	3.8914	4.2168	4.5815	4.9858	5.4294	5.9115	6.4308	6.9852	7.5726	8.1903	8.8354	9.5049	10.1959	10.9052	11.6300	12.3676	13.1153	13.8710	14.6323	15.3973	16.1645	
5334	3.8914	4.2168	4.5814	4.9857	5.4293	5.9114	6.4306	6.9851	7.5724	8.1901	8.8352	9.5047	10.1956	10.9049	11.6298	12.3673	13.1151	13.8707	14.6320	15.3971	16.1643	
5336	3.8915	4.2168	4.5814	4.9856	5.4291	5.9112	6.4304	6.9849	7.5722	8.1899	8.8349	9.5045	10.1954	10.9047	11.6295	12.3671	13.1148	13.8704	14.6317	15.3968	16.1640	
5338	3.8916	4.2168	4.5813	4.9855	5.4290	5.9111	6.4303	6.9847	7.5720	8.1897	8.8347	9.5042	10.1951	10.9044	11.6293	12.3668	13.1146	13.8702	14.6315	15.3966	16.1638	
5340	3.8916	4.2168	4.5813	4.9854	5.4289	5.9109	6.4301	6.9845	7.5718	8.1894	8.8345	9.5040	10.1949	10.9042	11.6290	12.3666	13.1143	13.8699	14.6312	15.3963	16.1635	
5342	3.8917	4.2168	4.5812	4.9853	5.4288	5.9108	6.4299	6.9843	7.5716	8.1892	8.8343	9.5037	10.1946	10.9039	11.6287	12.3663	13.1141	13.8697	14.6310	15.3961	16.1633	
5344	3.8917	4.2168	4.5812	4.9852	5.4287	5.9106	6.4297	6.9841	7.5714	8.1890	8.8340	9.5035	10.1944	10.9037	11.6285	12.3661	13.1138	13.8694	14.6307	15.3958	16.1630	
5346	3.8918	4.2168	4.5811	4.9851	5.4285	5.9105	6.4296	6.9839	7.5712	8.1888	8.8338	9.5033	10.1942	10.9034	11.6282	12.3658	13.1136	13.8692	14.6305	15.3956	16.1628	
5348	3.8919	4.2168	4.5811	4.9850	5.4284	5.9103	6.4294	6.9837	7.5710	8.1886	8.8336	9.5030	10.1939	10.9032	11.6280	12.3656	13.1133	13.8689	14.6302	15.3953	16.1626	
5350	3.8919	4.2168	4.5810	4.9850	5.4283	5.9102	6.4292	6.9835	7.5708	8.1883	8.8333	9.5028	10.1937	10.9030	11.6278	12.3653	13.1131	13.8687	14.6300	15.3951	16.1623	
5352	3.8920	4.2168	4.5810	4.9849	5.4282	5.9100	6.4291	6.9833	7.5706	8.1881	8.8331	9.5026	10.1934	10.9027	11.6275	12.3651	13.1128	13.8684	14.6297	15.3949	16.1621	
5354	3.8920	4.2168	4.5809	4.9848	5.4281	5.9099	6.4289	6.9832	7.5704	8.1879	8.8329	9.5023	10.1932	10.9025	11.6273	12.3648	13.1126	13.8682	14.6295	15.3946	16.1618	
5356	3.8921	4.2168	4.5809	4.9847	5.4279	5.9097	6.4287	6.9830	7.5702	8.1877	8.8327	9.5021	10.1929	10.9022	11.6270	12.3646	13.1123	13.8679	14.6292	15.3944	16.1616	
5358	3.8921	4.2168	4.5808	4.9846	5.4278	5.9096	6.4285	6.9828	7.5700	8.1875	8.8324	9.5019	10.1927	10.9020	11.6268	12.3643	13.1121	13.8677	14.6290	15.3941	16.1613	
5360	3.8922	4.2168	4.5808	4.9845	5.4277	5.9094	6.4284	6.9826	7.5698	8.1872	8.8322	9.5016	10.1925	10.9017	11.6265	12.3641	13.1118	13.8674	14.6287	15.3939	16.1611	
5362	3.8922	4.2167	4.5807	4.9844	5.4276	5.9093	6.4282	6.9824	7.5695	8.1870	8.8320	9.5014	10.1922	10.9015	11.6263	12.3638	13.1116	13.8672	14.6285	15.3936	16.1608	
5364	3.8923	4.2167	4.5807	4.9843	5.4274	5.9091	6.4280	6.9822	7.5693	8.1868	8.8318	9.5012	10.1920	10.9012	11.6260	12.3636	13.1113	13.8669	14.6283	15.3934	16.1606	
5366	3.8923	4.2167	4.5806	4.9842	5.4273	5.9090	6.4279	6.9820	7.5691	8.1866	8.8315	9.5009	10.1917	10.9010	11.6258	12.3633	13.1111	13.8667	14.6280	15.3931	16.1604	
5368	3.8924	4.2167	4.5806	4.9841	5.4272	5.9088	6.4277	6.9818	7.5689	8.1864	8.8313	9.5007	10.1915	10.9008	11.6255	12.3631	13.1108	13.8664	14.6278	15.3929	16.1601	
5370	3.8924	4.2167	4.5805	4.9840	5.4271	5.9087	6.4275	6.9816	7.5687	8.1862	8.8311	9.5005	10.1913	10.9005	11.6253	12.3628	13.1106	13.8662	14.6275	15.3926	16.1599	
5372	3.8925	4.2167	4.5804	4.9840	5.4269	5.9085	6.4273	6.9814	7.5685	8.1860	8.8309	9.5002	10.1910	10.9003	11.6250	12.3626	13.1103	13.8659	14.6273	15.3924	16.1596	
5374	3.8925	4.2167	4.5804	4.9839	5.4268	5.9084	6.4272	6.9813	7.5683	8.1857	8.8306	9.5000	10.1908	10.9000	11.6248	12.3623	13.1101	13.8657	14.6270	15.3922	16.1594	
5376	3.8925	4.2167	4.5803	4.9838	5.4267	5.9082	6.4270	6.9811	7.5681	8.1855	8.8304	9.4998	10.1906	10.8998	11.6246	12.3621	13.1098	13.8655	14.6268	15.3919	16.1592	
5378	3.8926	4.2167	4.5803	4.9837	5.4266	5.9081	6.4268	6.9809	7.5679	8.1853	8.8302	9.4995	10.1903	10.8996	11.6243	12.3618	13.1096	13.8652	14.6265	15.3917	16.1589	
5380	3.8926	4.2167	4.5802	4.9836	5.4264	5.9079	6.4267	6.9807	7.5677	8.1851	8.8300	9.4993	10.1901	10.8993	11.6241	12.3616	13.1094	13.8650	14.6263	15.3914	16.1587	
5382	3.8927	4.2166	4.5802	4.9835	5.4263	5.9078	6.4265	6.9805	7.5675	8.1849	8.8297	9.4991	10.1899	10.8991	11.6238	12.3614	13.1091	13.8647	14.6261	15.3912	16.1585	
5384	3.8927	4.2166	4.5801	4.9834	5.4262	5.9076	6.4263	6.9803	7.5673	8.1847	8.8295	9.4988	10.1896	10.8988	11.6236	12.3611	13.1089	13.8645	14.6258	15.3910	16.1582	
5386	3.8927	4.2166	4.5800	4.9833	5.4261	5.9075	6.4262	6.9801	7.5671	8.1845	8.8293	9.4986	10.1894	10.8986	11.6233	12.3609	13.1086	13.8642	14.6256	15.3907	16.1580	
5388	3.8928	4.2166	4.5800	4.9832	5.4259	5.9073	6.4260	6.9799	7.5669	8.1842	8.8291	9.4984	10.1892	10.8984	11.6231	12.3606	13.1084	13.8640	14.6253	15.3905	16.1577	
5390	3.8928	4.2166	4.5799	4.9831	5.4258	5.9072	6.4258	6.9798	7.5667	8.1840	8.8289	9.4982	10.1889	10.8981	11.6229	12.3604	13.1081	13.8638	14.6251	15.3902	16.1575	
5392	3.8928	4.2166	4.5799	4.9830	5.4257	5.9071	6.4256	6.9796	7.5665	8.1838	8.8286	9.4979	10.1887	10.8979	11.6226	12.3602	13.1079	13.8635	14.6249	15.3900	16.1573	
5394	3.8929	4.2166	4.5798	4.9829	5.4256	5.9069	6.4255	6.9794	7.5663	8.1836	8.8284	9.4977	10.1885	10.8977	11.6224	12.3599	13.1077	13.8633	14.6246	15.3898	16.1570	
5396	3.8929	4.2165	4.5798	4.9828	5.4255	5.9068	6.4253	6.9792	7.5661	8.1834	8.8282	9.4975	10.1882	10.8974	11.6222	12.3597	13.1074	13.8630	14.6244	15.3895	16.1568	
5398	3.8929	4.2165	4.5797	4.9827	5.4253	5.9066	6.4251	6.9790	7.5659	8.1832	8.8280	9.4973	10.1880	10.8972	11.6219	12.3594	13.1072	13.8628	14.6242	15.3893	16.1566	
5400	3.8930	4.2165	4.5796	4.9826	5.4252	5.9065	6.4250	6.9788	7.5657	8.1830	8.8278	9.4970	10.1878	10.8970	11.6217	12.3592	13.1070	13.8626	14.6239	15.3891	16.1563	
5402	3.8930	4.2165	4.5796	4.9825	5.4251	5.9063	6.4248	6.9787	7.5655	8.1828	8.8275	9.4968	10.1875	10.8967	11.6215	12.3590	13.1067	13.8623	14.6237	15.3888	16.1561	
5404	3.8930	4.2165	4.5795	4.9824	5.4250	5.9062	6.4246	6.9785	7.5653	8.1826	8.8273	9.4966	10.1873	10.8965	11.6212	12.3587	13.1065	13.8621	14.6234	15.3886	16.1559	
5406	3.8931	4.2164	4.5795	4.9824	5.4248	5.9060	6.4245	6.9783	7.5651	8.1824	8.8271	9.4964	10.1871	10.8963	11.6210	12.3585	13.1063	13.8619	14.6232	15.3884	16.1557	
5408	3.8931	4.2164	4.5794	4.9823	5.4247	5.9059	6.4243	6.9781	7.5649	8.1822	8.8269	9.4961	10.1869	10.8960	11.6208	12.3583	13.1060	13.8616	14.6230	15.3881	16.1554	
5410	3.8931	4.2164	4.5793	4.9822	5.4246	5.9057	6.4241	6.9779	7.5647	8.1820	8.8267	9.4959	10.1866	10.8958	11.6205	12.3580	13.1058	13.8614	14.6228	15.3879	16.1552	
5412	3.8932	4.2164	4.5793	4.9821	5.4245	5.9056	6.4240	6.9777	7.5645	8.1818	8.8265	9.4957	10.1864	10.8956	11.6203	12.3578	13.1056	13.8612	14.6225	15.3877	16.1550	
5414	3.8932	4.2164	4.5792	4.9820	5.4243	5.9054	6.4238	6.9776	7.5644	8.1815	8.8263	9.4955	10.1862	10.8953	11.6201	12.3576	13.1053	13.8609	14.6223	15.3875	16.1548	
5416	3.8932	4.2163	4.5791	4.9819	5.4242	5.9053	6.4236	6.9774	7.5642	8.1813	8.8260	9.4953	10.1860	10.8951	11.6198	12.3573	13.1051	13.8607	14.6221	15.3872	16.1545	
5418	3.8932	4.2163	4.5791	4.9818	5.4241	5.9051	6.4235	6.9772	7.5640	8.1811	8.8258	9.4951	10.1857	10.8949	11.6196	12.3571	13.1049	13.8605	14.6218	15.3870	16.1543	
5420	3.8933	4.2163	4.5790	4.9817	5.4240	5.9050	6.4233	6.9770	7.5638	8.1809	8.8256	9.4948	10.1855	10.8947	11.6194	12.3569	13.1046	13.8602	14.6216	15.3868	16.1541	
5422	3.8933	4.2163	4.5790	4.9816	5.4239	5.9049	6.4232	6.9768	7.5636	8.1807	8.8254	9.4946	10.1853	10.8944	11.6191	12.3567	13.1044	13.8600	14.6214	15.3866	16.1539	
5424	3.8933	4.2162	4.5789	4.9815	5.4237	5.9047	6.4230	6.9767	7.5634	8.1805	8.8252	9.4944	10.1851	10.8942	11.6189	12.3564	13.1042	13.8598	14.6212	15.3863	16.1536	
5426	3.8933	4.2162	4.5788	4.9814	5.4236	5.9046	6.4228	6.9765	7.5632	8.1803	8.8250	9.4942	10.1849	10.8940	11.6187	12.3562	13.1039	13.8596	14.6209	15.3861	16.1534	
5428	3.8934	4.2162	4.5788	4.9813	5.4235	5.9044	6.4227	6.9763	7.5630	8.1801	8.8248	9.4940	10.1846	10.8938	11.6185	12.3560	13.1037	13.8593	14.6207	15.3859	16.1532	
5430	3.8934	4.2162	4.5787	4.9812	5.4234	5.9043	6.4225	6.9761	7.5628	8.1799	8.8246	9.4938	10.1844	10.8936	11.6182	12.3558	13.1035	13.8591	14.6205	15.3857	16.1530	
5432	3.8934	4.2161	4.5786	4.9811	5.4232	5.9041	6.4223	6.9760	7.5626	8.1797	8.8244	9.4935	10.1842	10.8933	11.6180	12.3555	13.1033	13.8589	14.6203	15.3854	16.1528	
5434	3.8934	4.2161	4.5786	4.9810	5.4231	5.9040	6.4222	6.9758	7.5624	8.1795	8.8242	9.4933	10.1840	10.8931	11.6178	12.3553	13.1031	13.8587	14.6200	15.3852	16.1525	
5436	3.8934	4.2161	4.5785	4.9809	5.4230	5.9039	6.4220	6.9756	7.5623	8.1793	8.8240	9.4931	10.1838	10.8929	11.6176	12.3551	13.1028	13.8585	14.6198	15.3850	16.1523	
5438	3.8935	4.2161	4.5785	4.9808	5.4229	5.9037	6.4219	6.9754	7.5621	8.1791	8.8238	9.4929	10.1836	10.8927	11.6174	12.3549	13.1026	13.8582	14.6196	15.3848	16.1521	
5440	3.8935	4.2160	4.5784	4.9807	5.4228	5.9036	6.4217	6.9753	7.5619	8.1790	8.8236	9.4927	10.1833	10.8925	11.6171	12.3546	13.1024	13.8580	14.6194	15.3846	16.1519	
5442	3.8935	4.2160	4.5783	4.9806	5.4226	5.9034	6.4215	6.9751	7.5617	8.1788	8.8234	9.4925	10.1831	10.8922	11.6169	12.3544	13.1022	13.8578	14.6192	15.3844	16.1517	
5444	3.8935	4.2160	4.5783	4.9806	5.4225	5.9033	6.4214	6.9749	7.5615	8.1786	8.8232	9.4923	10.1829	10.8920	11.6167	12.3542	13.1020	13.8576	14.6189	15.3841	16.1515	
5446	3.8935	4.2160	4.5782	4.9805	5.4224	5.9031	6.4212	6.9747	7.5613	8.1784	8.8230	9.4921	10.1827	10.8918	11.6165	12.3540	13.1017	13.8574	14.6187	15.3839	16.1513	
5448	3.8936	4.2159	4.5781	4.9804	5.4223	5.9030	6.4211	6.9746	7.5612	8.1782	8.8228	9.4919	10.1825	10.8916	11.6163	12.3538	13.1015	13.8571	14.6185	15.3837	16.1510	
5450	3.8936	4.2159	4.5781	4.9803	5.4222	5.9029	6.4209	6.9744	7.5610	8.1780	8.8225	9.4917	10.1823	10.8914	11.6161	12.3535	13.1013	13.8569	14.6183	15.3835	16.1508	
5452	3.8936	4.2159	4.5780	4.9802	5.4221	5.9027	6.4208	6.9742	7.5608	8.1778	8.8223	9.4915	10.1821	10.8912	11.6158	12.3533	13.1011	13.8567	14.6181	15.3833	16.1506	
5454	3.8936	4.2159	4.5779	4.9801	5.4219	5.9026	6.4206	6.9740	7.5606	8.1776	8.8221	9.4913	10.1819	10.8909	11.6156	12.3531	13.1009	13.8565	14.6179	15.3831	16.1504	
5456	3.8936	4.2158	4.5779	4.9800	5.4218	5.9024	6.4204	6.9739	7.5604	8.1774	8.8219	9.4910	10.1816	10.8907	11.6154	12.3529	13.1006	13.8563	14.6176	15.3829	16.1502	
5458	3.8936	4.2158	4.5778	4.9799	5.4217	5.9023	6.4203	6.9737	7.5602	8.1772	8.8217	9.4908	10.1814	10.8905	11.6152	12.3527	13.1004	13.8561	14.6174	15.3826	16.1500	
5460	3.8936	4.2158	4.5777	4.9798	5.4216	5.9022	6.4201	6.9735	7.5601	8.1770	8.8215	9.4906	10.1812	10.8903	11.6150	12.3525	13.1002	13.8558	14.6172	15.3824	16.1498	
5462	3.8937	4.2157	4.5777	4.9797	5.4215	5.9020	6.4200	6.9734	7.5599	8.1768	8.8214	9.4904	10.1810	10.8901	11.6148	12.3523	13.1000	13.8556	14.6170	15.3822	16.1496	
5464	3.8937	4.2157	4.5776	4.9796	5.4213	5.9019	6.4198	6.9732	7.5597	8.1766	8.8212	9.4902	10.1808	10.8899	11.6146	12.3520	13.0998	13.8554	14.6168	15.3820	16.1494	
5466	3.8937	4.2157	4.5776	4.9795	5.4212	5.9018	6.4197	6.9730	7.5595	8.1765	8.8210	9.4900	10.1806	10.8897	11.6143	12.3518	13.0996	13.8552	14.6166	15.3818	16.1492	
5468	3.8937	4.2156	4.5775	4.9794	5.4211	5.9016	6.4195	6.9729	7.5593	8.1763	8.8208	9.4898	10.1804	10.8895	11.6141	12.3516	13.0994	13.8550	14.6164	15.3816	16.1490	
5470	3.8937	4.2156	4.5774	4.9793	5.4210	5.9015	6.4194	6.9727	7.5592	8.1761	8.8206	9.4896	10.1802	10.8893	11.6139	12.3514	13.0992	13.8548	14.6162	15.3814	16.1488	
5472	3.8937	4.2156	4.5774	4.9792	5.4209	5.9013	6.4192	6.9725	7.5590	8.1759	8.8204	9.4894	10.1800	10.8891	11.6137	12.3512	13.0989	13.8546	14.6160	15.3812	16.1486	
5474	3.8937	4.2156	4.5773	4.9792	5.4208	5.9012	6.4191	6.9724	7.5588	8.1757	8.8202	9.4892	10.1798	10.8889	11.6135	12.3510	13.0987	13.8544	14.6158	15.3810	16.1484	
5476	3.8937	4.2155	4.5772	4.9791	5.4206	5.9011	6.4189	6.9722	7.5586	8.1755	8.8200	9.4890	10.1796	10.8887	11.6133	12.3508	13.0985	13.8542	14.6156	15.3808	16.1482	
5478	3.8937	4.2155	4.5772	4.9790	5.4205	5.9009	6.4188	6.9720	7.5585	8.1753	8.8198	9.4889	10.1794	10.8885	11.6131	12.3506	13.0983	13.8540	14.6154	15.3806	16.1480	
5480	3.8937	4.2155	4.5771	4.9789	5.4204	5.9008	6.4186	6.9719	7.5583	8.1752	8.8196	9.4887	10.1792	10.8883	11.6129	12.3504	13.0981	13.8538	14.6152	15.3804	16.1478	
5482	3.8938	4.2154	4.5770	4.9788	5.4203	5.9007	6.4185	6.9717	7.5581	8.1750	8.8194	9.4885	10.1790	10.8881	11.6127	12.3502	13.0979	13.8536	14.6150	15.3802	16.1476	
5484	3.8938	4.2154	4.5770	4.9787	5.4202	5.9006	6.4183	6.9716	7.5579	8.1748	8.8193	9.4883	10.1788	10.8879	11.6125	12.3500	13.0977	13.8534	14.6148	15.3800	16.1474	
5486	3.8938	4.2154	4.5769	4.9786	5.4201	5.9004	6.4182	6.9714	7.5578	8.1746	8.8191	9.4881	10.1786	10.8877	11.6123	12.3498	13.0975	13.8532	14.6146	15.3798	16.1472	
5488	3.8938	4.2153	4.5769	4.9785	5.4200	5.9003	6.4180	6.9713	7.5576	8.1745	8.8189	9.4879	10.1784	10.8875	11.6121	12.3496	13.0973	13.8530	14.6144	15.3796	16.1470	
5490	3.8938	4.2153	4.5768	4.9784	5.4199	5.9002	6.4179	6.9711	7.5574	8.1743	8.8187	9.4877	10.1782	10.8873	11.6119	12.3494	13.0971	13.8528	14.6142	15.3794	16.1468	
5492	3.8938	4.2153	4.5767	4.9783	5.4198	5.9000	6.4177	6.9709	7.5573	8.1741	8.8185	9.4875	10.1780	10.8871	11.6117	12.3492	13.0969	13.8526	14.6140	15.3792	16.1466	
5494	3.8938	4.2152	4.5767	4.9783	5.4196	5.8999	6.4176	6.9708	7.5571	8.1739	8.8183	9.4873	10.1779	10.8869	11.6115	12.3490	13.0967	13.8524	14.6138	15.3790	16.1464	
5496	3.8938	4.2152	4.5766	4.9782	5.4195	5.8998	6.4175	6.9706	7.5569	8.1738	8.8182	9.4872	10.1777	10.8867	11.6113	12.3488	13.0966	13.8522	14.6136	15.3789	16.1463	
5498	3.8938	4.2152	4.5765	4.9781	5.4194	5.8997	6.4173	6.9705	7.5568	8.1736	8.8180	9.4870	10.1775	10.8865	11.6111	12.3486	13.0964	13.8520	14.6134	15.3787	16.1461	
5500	3.8938	4.2152	4.5765	4.9780	5.4193	5.8995	6.4172	6.9703	7.5566	8.1734	8.8178	9.4868	10.1773	10.8863	11.6110	12.3484	13.0962	13.8518	14.6132	15.3785	16.1459	
5502	3.8938	4.2151	4.5764	4.9779	5.4192	5.8994	6.4170	6.9702	7.5565	8.1732	8.8176	9.4866	10.1771	10.8861	11.6108	12.3482	13.0960	13.8516	14.6130	15.3783	16.1457	
5504	3.8938	4.2151	4.5764	4.9778	5.4191	5.8993	6.4169	6.9700	7.5563	8.1731	8.8175	9.4864	10.1769	10.8860	11.6106	12.3481	13.0958	13.8514	14.6129	15.3781	16.1455	
5506	3.8938	4.2151	4.5763	4.9777	5.4190	5.8992	6.4168	6.9699	7.5561	8.1729	8.8173	9.4863	10.1768	10.8858	11.6104	12.3479	13.0956	13.8513	14.6127	15.3779	16.1453	
5508	3.8938	4.2150	4.5762	4.9777	5.4189	5.8990	6.4166	6.9697	7.5560	8.1727	8.8171	9.4861	10.1766	10.8856	11.6102	12.3477	13.0954	13.8511	14.6125	15.3778	16.1452	
5510	3.8938	4.2150	4.5762	4.9776	5.4188	5.8989	6.4165	6.9696	7.5558	8.1726	8.8169	9.4859	10.1764	10.8854	11.6100	12.3475	13.0952	13.8509	14.6123	15.3776	16.1450	
5512	3.8938	4.2150	4.5761	4.9775	5.4187	5.8988	6.4164	6.9694	7.5557	8.1724	8.8168	9.4857	10.1762	10.8852	11.6098	12.3473	13.0951	13.8507	14.6121	15.3774	16.1448	
5514	3.8938	4.2149	4.5761	4.9774	5.4186	5.8987	6.4162	6.9693	7.5555	8.1723	8.8166	9.4856	10.1760	10.8850	11.6097	12.3471	13.0949	13.8505	14.6119	15.3772	16.1446	
5516	3.8938	4.2149	4.5760	4.9773	5.4185	5.8986	6.4161	6.9691	7.5554	8.1721	8.8164	9.4854	10.1759	10.8849	11.6095	12.3470	13.0947	13.8503	14.6118	15.3770	16.1445	
5518	3.8938	4.2149	4.5759	4.9772	5.4184	5.8984	6.4160	6.9690	7.5552	8.1719	8.8163	9.4852	10.1757	10.8847	11.6093	12.3468	13.0945	13.8502	14.6116	15.3769	16.1443	
5520	3.8938	4.2148	4.5759	4.9772	5.4183	5.8983	6.4158	6.9689	7.5551	8.1718	8.8161	9.4850	10.1755	10.8845	11.6091	12.3466	13.0943	13.8500	14.6114	15.3767	16.1441	
5522	3.8938	4.2148	4.5758	4.9771	5.4182	5.8982	6.4157	6.9687	7.5549	8.1716	8.8159	9.4849	10.1753	10.8843	11.6090	12.3464	13.0942	13.8498	14.6112	15.3765	16.1439	
5524	3.8939	4.2148	4.5758	4.9770	5.4181	5.8981	6.4156	6.9686	7.5548	8.1715	8.8158	9.4847	10.1752	10.8842	11.6088	12.3463	13.0940	13.8496	14.6111	15.3763	16.1438	
5526	3.8939	4.2147	4.5757	4.9769	5.4180	5.8980	6.4154	6.9684	7.5546	8.1713	8.8156	9.4845	10.1750	10.8840	11.6086	12.3461	13.0938	13.8495	14.6109	15.3762	16.1436	
5528	3.8939	4.2147	4.5756	4.9768	5.4179	5.8979	6.4153	6.9683	7.5545	8.1712	8.8155	9.4844	10.1748	10.8838	11.6084	12.3459	13.0936	13.8493	14.6107	15.3760	16.1434	
5530	3.8939	4.2147	4.5756	4.9767	5.4178	5.8977	6.4152	6.9682	7.5543	8.1710	8.8153	9.4842	10.1747	10.8837	11.6083	12.3457	13.0935	13.8491	14.6106	15.3758	16.1433	
5532	3.8939	4.2146	4.5755	4.9767	5.4177	5.8976	6.4151	6.9680	7.5542	8.1708	8.8151	9.4841	10.1745	10.8835	11.6081	12.3456	13.0933	13.8490	14.6104	15.3757	16.1431	
5534	3.8939	4.2146	4.5755	4.9766	5.4176	5.8975	6.4149	6.9679	7.5540	8.1707	8.8150	9.4839	10.1743	10.8833	11.6079	12.3454	13.0931	13.8488	14.6102	15.3755	16.1430	
5536	3.8939	4.2146	4.5754	4.9765	5.4175	5.8974	6.4148	6.9678	7.5539	8.1705	8.8148	9.4837	10.1742	10.8832	11.6078	12.3452	13.0930	13.8486	14.6101	15.3754	16.1428	
5538	3.8939	4.2146	4.5754	4.9764	5.4174	5.8973	6.4147	6.9676	7.5538	8.1704	8.8147	9.4836	10.1740	10.8830	11.6076	12.3451	13.0928	13.8485	14.6099	15.3752	16.1426	
5540	3.8939	4.2145	4.5753	4.9764	5.4173	5.8972	6.4146	6.9675	7.5536	8.1703	8.8145	9.4834	10.1739	10.8828	11.6074	12.3449	13.0926	13.8483	14.6097	15.3750	16.1425	
